# F090W filter 
# Wavelength [microns]  |  Transmission efficiency
0.50000000       0.00000000E+00  
0.50100000       0.00000000E+00  
0.50200000       0.00000000E+00  
0.50300000       0.00000000E+00  
0.50400000       0.00000000E+00  
0.50500000       0.00000000E+00  
0.50600000       0.00000000E+00  
0.50700000       0.00000000E+00  
0.50800000       0.00000000E+00  
0.50900000       0.00000000E+00  
0.51000000       0.00000000E+00  
0.51100000       0.00000000E+00  
0.51200000       0.00000000E+00  
0.51300000       0.00000000E+00  
0.51400000       0.00000000E+00  
0.51500000       0.00000000E+00  
0.51600000       0.00000000E+00  
0.51700000       0.00000000E+00  
0.51800000       0.00000000E+00  
0.51900000       0.00000000E+00  
0.52000000       0.00000000E+00  
0.52100000       0.00000000E+00  
0.52200000       0.00000000E+00  
0.52300000       0.00000000E+00  
0.52400000       0.00000000E+00  
0.52500000       0.00000000E+00  
0.52600000       0.00000000E+00  
0.52700000       0.00000000E+00  
0.52800000       0.00000000E+00  
0.52900000       0.00000000E+00  
0.53000000       0.00000000E+00  
0.53100000       4.55894000E-10  
0.53200000       4.95593000E-10  
0.53300000       0.00000000E+00  
0.53400000       0.00000000E+00  
0.53500000       0.00000000E+00  
0.53600000       3.78075000E-10  
0.53700000       3.28810000E-10  
0.53800000       0.00000000E+00  
0.53900000       3.54296000E-10  
0.54000000       9.46430000E-10  
0.54100000       1.12040000E-09  
0.54200000       1.01975000E-09  
0.54300000       9.01540000E-10  
0.54400000       4.57075000E-10  
0.54500000       9.64691000E-10  
0.54600000       4.69601000E-10  
0.54700000       0.00000000E+00  
0.54800000       0.00000000E+00  
0.54900000       0.00000000E+00  
0.55000000       0.00000000E+00  
0.55100000       0.00000000E+00  
0.55200000       0.00000000E+00  
0.55300000       0.00000000E+00  
0.55400000       0.00000000E+00  
0.55500000       0.00000000E+00  
0.55600000       0.00000000E+00  
0.55700000       0.00000000E+00  
0.55800000       0.00000000E+00  
0.55900000       0.00000000E+00  
0.56000000       0.00000000E+00  
0.56100000       0.00000000E+00  
0.56200000       0.00000000E+00  
0.56300000       0.00000000E+00  
0.56400000       0.00000000E+00  
0.56500000       0.00000000E+00  
0.56600000       0.00000000E+00  
0.56700000       0.00000000E+00  
0.56800000       0.00000000E+00  
0.56900000       0.00000000E+00  
0.57000000       0.00000000E+00  
0.57100000       0.00000000E+00  
0.57200000       0.00000000E+00  
0.57300000       0.00000000E+00  
0.57400000       0.00000000E+00  
0.57500000       0.00000000E+00  
0.57600000       0.00000000E+00  
0.57700000       0.00000000E+00  
0.57800000       0.00000000E+00  
0.57900000       0.00000000E+00  
0.58000000       0.00000000E+00  
0.58100000       0.00000000E+00  
0.58200000       0.00000000E+00  
0.58300000       0.00000000E+00  
0.58400000       0.00000000E+00  
0.58500000       0.00000000E+00  
0.58600000       3.06378000E-09  
0.58700000       3.01291000E-09  
0.58800000       4.05166000E-09  
0.58900000       0.00000000E+00  
0.59000000       0.00000000E+00  
0.59100000       0.00000000E+00  
0.59200000       0.00000000E+00  
0.59300000       0.00000000E+00  
0.59400000       2.60655000E-09  
0.59500000       4.09269000E-09  
0.59600000       2.43108000E-09  
0.59700000       0.00000000E+00  
0.59800000       0.00000000E+00  
0.59900000       0.00000000E+00  
0.60000000       0.00000000E+00  
0.60100000       0.00000000E+00  
0.60200000       0.00000000E+00  
0.60300000       0.00000000E+00  
0.60400000       0.00000000E+00  
0.60500000       0.00000000E+00  
0.60600000       0.00000000E+00  
0.60700000       0.00000000E+00  
0.60800000       0.00000000E+00  
0.60900000       0.00000000E+00  
0.61000000       4.07292000E-09  
0.61100000       4.42965000E-09  
0.61200000       0.00000000E+00  
0.61300000       0.00000000E+00  
0.61400000       0.00000000E+00  
0.61500000       0.00000000E+00  
0.61600000       0.00000000E+00  
0.61700000       0.00000000E+00  
0.61800000       0.00000000E+00  
0.61900000       0.00000000E+00  
0.62000000       0.00000000E+00  
0.62100000       0.00000000E+00  
0.62200000       0.00000000E+00  
0.62300000       0.00000000E+00  
0.62400000       0.00000000E+00  
0.62500000       0.00000000E+00  
0.62600000       0.00000000E+00  
0.62700000       0.00000000E+00  
0.62800000       0.00000000E+00  
0.62900000       0.00000000E+00  
0.63000000       0.00000000E+00  
0.63100000       0.00000000E+00  
0.63200000       0.00000000E+00  
0.63300000       0.00000000E+00  
0.63400000       0.00000000E+00  
0.63500000       0.00000000E+00  
0.63600000       0.00000000E+00  
0.63700000       0.00000000E+00  
0.63800000       0.00000000E+00  
0.63900000       0.00000000E+00  
0.64000000       0.00000000E+00  
0.64100000       0.00000000E+00  
0.64200000       0.00000000E+00  
0.64300000       0.00000000E+00  
0.64400000       0.00000000E+00  
0.64500000       0.00000000E+00  
0.64600000       0.00000000E+00  
0.64700000       0.00000000E+00  
0.64800000       0.00000000E+00  
0.64900000       0.00000000E+00  
0.65000000       0.00000000E+00  
0.65100000       0.00000000E+00  
0.65200000       0.00000000E+00  
0.65300000       0.00000000E+00  
0.65400000       0.00000000E+00  
0.65500000       0.00000000E+00  
0.65600000       0.00000000E+00  
0.65700000       4.63479000E-09  
0.65800000       1.10701000E-08  
0.65900000       3.09711000E-08  
0.66000000       4.69741000E-08  
0.66100000       4.30784000E-08  
0.66200000       3.41302000E-08  
0.66300000       3.10543000E-08  
0.66400000       5.27719000E-08  
0.66500000       3.93021000E-08  
0.66600000       2.26789000E-08  
0.66700000       1.46810000E-08  
0.66800000       9.54020000E-09  
0.66900000       9.50238000E-09  
0.67000000       7.95299000E-09  
0.67100000       7.29737000E-09  
0.67200000       9.31524000E-09  
0.67300000       8.90847000E-09  
0.67400000       9.52405000E-09  
0.67500000       1.11444000E-08  
0.67600000       1.21982000E-08  
0.67700000       1.17449000E-08  
0.67800000       9.75143000E-09  
0.67900000       9.12423000E-09  
0.68000000       1.14749000E-08  
0.68100000       1.52772000E-08  
0.68200000       2.14935000E-08  
0.68300000       2.71057000E-08  
0.68400000       2.03755000E-08  
0.68500000       1.52706000E-08  
0.68600000       1.16902000E-08  
0.68700000       7.26689000E-09  
0.68800000       0.00000000E+00  
0.68900000       0.00000000E+00  
0.69000000       0.00000000E+00  
0.69100000       0.00000000E+00  
0.69200000       0.00000000E+00  
0.69300000       0.00000000E+00  
0.69400000       0.00000000E+00  
0.69500000       0.00000000E+00  
0.69600000       0.00000000E+00  
0.69700000       0.00000000E+00  
0.69800000       7.72914000E-09  
0.69900000       1.15302000E-08  
0.70000000       1.58310000E-08  
0.70100000       1.99666000E-08  
0.70200000       2.12631000E-08  
0.70300000       1.81819000E-08  
0.70400000       1.76726000E-08  
0.70500000       1.65318000E-08  
0.70600000       1.46529000E-08  
0.70700000       1.50133000E-08  
0.70800000       1.66996000E-08  
0.70900000       1.76739000E-08  
0.71000000       2.11202000E-08  
0.71100000       2.45157000E-08  
0.71200000       2.74987000E-08  
0.71300000       3.07177000E-08  
0.71400000       3.42710000E-08  
0.71500000       4.03349000E-08  
0.71600000       4.14002000E-08  
0.71700000       3.91377000E-08  
0.71800000       3.84620000E-08  
0.71900000       4.46631000E-08  
0.72000000       5.26877000E-08  
0.72100000       6.35755000E-08  
0.72200000       8.43253000E-08  
0.72300000       1.07649000E-07  
0.72400000       1.34727000E-07  
0.72500000       1.96108000E-07  
0.72600000       2.64918000E-07  
0.72700000       2.84216000E-07  
0.72800000       2.77333000E-07  
0.72900000       2.65164000E-07  
0.73000000       2.19204000E-07  
0.73100000       2.03801000E-07  
0.73200000       2.14594000E-07  
0.73300000       2.17238000E-07  
0.73400000       2.40180000E-07  
0.73500000       2.66433000E-07  
0.73600000       2.57610000E-07  
0.73700000       2.75319000E-07  
0.73800000       3.35814000E-07  
0.73900000       3.84625000E-07  
0.74000000       4.33755000E-07  
0.74100000       4.82281000E-07  
0.74200000       5.18742000E-07  
0.74300000       5.21375000E-07  
0.74400000       4.94549000E-07  
0.74500000       4.59650000E-07  
0.74600000       4.79368000E-07  
0.74700000       5.18402000E-07  
0.74800000       5.58484000E-07  
0.74900000       5.65152000E-07  
0.75000000       6.07128000E-07  
0.75100000       6.25743000E-07  
0.75200000       5.97737000E-07  
0.75300000       6.21201000E-07  
0.75400000       6.18831000E-07  
0.75500000       5.90666000E-07  
0.75600000       5.83429000E-07  
0.75700000       5.73112000E-07  
0.75800000       6.58832000E-07  
0.75900000       6.81537000E-07  
0.76000000       7.14899000E-07  
0.76100000       6.65032000E-07  
0.76200000       6.89462000E-07  
0.76300000       7.65895000E-07  
0.76400000       7.58741000E-07  
0.76500000       7.30076000E-07  
0.76600000       6.57638000E-07  
0.76700000       7.05531000E-07  
0.76800000       7.10958000E-07  
0.76900000       7.68906000E-07  
0.77000000       8.15194000E-07  
0.77100000       7.64827000E-07  
0.77200000       8.54034000E-07  
0.77300000       8.72407000E-07  
0.77400000       8.65810000E-07  
0.77500000       8.88974000E-07  
0.77600000       9.94642000E-07  
0.77700000       1.07628000E-06  
0.77800000       1.16666000E-06  
0.77900000       1.71402000E-06  
0.78000000       2.78952000E-06  
0.78100000       4.91083000E-06  
0.78200000       1.00487000E-05  
0.78300000       2.30790000E-05  
0.78400000       5.50126000E-05  
0.78500000       1.31258000E-04  
0.78600000       3.25949000E-04  
0.78700000       8.68163000E-04  
0.78800000       2.43038000E-03  
0.78900000       6.75581000E-03  
0.79000000       1.76132000E-02  
0.79100000       4.05978000E-02  
0.79200000       8.03040000E-02  
0.79300000       1.37887000E-01  
0.79400000       2.09640000E-01  
0.79500000       2.86848000E-01  
0.79600000       3.61534000E-01  
0.79700000       4.29559000E-01  
0.79800000       4.86813000E-01  
0.79900000       5.25286000E-01  
0.80000000       5.56511000E-01  
0.80100000       5.76747000E-01  
0.80200000       5.91255000E-01  
0.80300000       6.03900000E-01  
0.80400000       6.11671000E-01  
0.80500000       6.19870000E-01  
0.80600000       6.13498000E-01  
0.80700000       6.01986000E-01  
0.80800000       5.80690000E-01  
0.80900000       5.66306000E-01  
0.81000000       5.55170000E-01  
0.81100000       5.50225000E-01  
0.81200000       5.52374000E-01  
0.81300000       5.55380000E-01  
0.81400000       5.52552000E-01  
0.81500000       5.46635000E-01  
0.81600000       5.39828000E-01  
0.81700000       5.38239000E-01  
0.81800000       5.46324000E-01  
0.81900000       5.63740000E-01  
0.82000000       5.80803000E-01  
0.82100000       5.98598000E-01  
0.82200000       6.08646000E-01  
0.82300000       6.15216000E-01  
0.82400000       6.11539000E-01  
0.82500000       6.01493000E-01  
0.82600000       5.90503000E-01  
0.82700000       5.81201000E-01  
0.82800000       5.77184000E-01  
0.82900000       5.78862000E-01  
0.83000000       5.79804000E-01  
0.83100000       5.79629000E-01  
0.83200000       5.78984000E-01  
0.83300000       5.73196000E-01  
0.83400000       5.63992000E-01  
0.83500000       5.57703000E-01  
0.83600000       5.52948000E-01  
0.83700000       5.55542000E-01  
0.83800000       5.59122000E-01  
0.83900000       5.63015000E-01  
0.84000000       5.64359000E-01  
0.84100000       5.66183000E-01  
0.84200000       5.71925000E-01  
0.84300000       5.73454000E-01  
0.84400000       5.82894000E-01  
0.84500000       5.87455000E-01  
0.84600000       5.89010000E-01  
0.84700000       5.96495000E-01  
0.84800000       5.94307000E-01  
0.84900000       6.00039000E-01  
0.85000000       6.01632000E-01  
0.85100000       6.03512000E-01  
0.85200000       6.02724000E-01  
0.85300000       5.99315000E-01  
0.85400000       5.92187000E-01  
0.85500000       5.85262000E-01  
0.85600000       5.80516000E-01  
0.85700000       5.74921000E-01  
0.85800000       5.71074000E-01  
0.85900000       5.65644000E-01  
0.86000000       5.59980000E-01  
0.86100000       5.53477000E-01  
0.86200000       5.48170000E-01  
0.86300000       5.45822000E-01  
0.86400000       5.50328000E-01  
0.86500000       5.54770000E-01  
0.86600000       5.59717000E-01  
0.86700000       5.68040000E-01  
0.86800000       5.74828000E-01  
0.86900000       5.84881000E-01  
0.87000000       5.93225000E-01  
0.87100000       5.97830000E-01  
0.87200000       6.01212000E-01  
0.87300000       6.01631000E-01  
0.87400000       5.99568000E-01  
0.87500000       5.95828000E-01  
0.87600000       5.88738000E-01  
0.87700000       5.81634000E-01  
0.87800000       5.73660000E-01  
0.87900000       5.67550000E-01  
0.88000000       5.66698000E-01  
0.88100000       5.66267000E-01  
0.88200000       5.61017000E-01  
0.88300000       5.50258000E-01  
0.88400000       5.41736000E-01  
0.88500000       5.33399000E-01  
0.88600000       5.25628000E-01  
0.88700000       5.22172000E-01  
0.88800000       5.21173000E-01  
0.88900000       5.29018000E-01  
0.89000000       5.38519000E-01  
0.89100000       5.47375000E-01  
0.89200000       5.59296000E-01  
0.89300000       5.77629000E-01  
0.89400000       5.91294000E-01  
0.89500000       5.92598000E-01  
0.89600000       5.93347000E-01  
0.89700000       5.87888000E-01  
0.89800000       5.83394000E-01  
0.89900000       5.78707000E-01  
0.90000000       5.72398000E-01  
0.90100000       5.65818000E-01  
0.90200000       5.57459000E-01  
0.90300000       5.48667000E-01  
0.90400000       5.40688000E-01  
0.90500000       5.36874000E-01  
0.90600000       5.33922000E-01  
0.90700000       5.31424000E-01  
0.90800000       5.32140000E-01  
0.90900000       5.34254000E-01  
0.91000000       5.40262000E-01  
0.91100000       5.47257000E-01  
0.91200000       5.55992000E-01  
0.91300000       5.65692000E-01  
0.91400000       5.76960000E-01  
0.91500000       5.89483000E-01  
0.91600000       5.99526000E-01  
0.91700000       6.10097000E-01  
0.91800000       6.18516000E-01  
0.91900000       6.23253000E-01  
0.92000000       6.26346000E-01  
0.92100000       6.28156000E-01  
0.92200000       6.28157000E-01  
0.92300000       6.27691000E-01  
0.92400000       6.20949000E-01  
0.92500000       6.12590000E-01  
0.92600000       6.07521000E-01  
0.92700000       6.01467000E-01  
0.92800000       5.97058000E-01  
0.92900000       5.93107000E-01  
0.93000000       5.90528000E-01  
0.93100000       5.89484000E-01  
0.93200000       5.88849000E-01  
0.93300000       5.88666000E-01  
0.93400000       5.87852000E-01  
0.93500000       5.86705000E-01  
0.93600000       5.87727000E-01  
0.93700000       5.88405000E-01  
0.93800000       5.90115000E-01  
0.93900000       5.94638000E-01  
0.94000000       6.01625000E-01  
0.94100000       6.09185000E-01  
0.94200000       6.17656000E-01  
0.94300000       6.27431000E-01  
0.94400000       6.35077000E-01  
0.94500000       6.39807000E-01  
0.94600000       6.43331000E-01  
0.94700000       6.43524000E-01  
0.94800000       6.41730000E-01  
0.94900000       6.39230000E-01  
0.95000000       6.35093000E-01  
0.95100000       6.31900000E-01  
0.95200000       6.30116000E-01  
0.95300000       6.28125000E-01  
0.95400000       6.24006000E-01  
0.95500000       6.19879000E-01  
0.95600000       6.17704000E-01  
0.95700000       6.15588000E-01  
0.95800000       6.14638000E-01  
0.95900000       6.17131000E-01  
0.96000000       6.19858000E-01  
0.96100000       6.23528000E-01  
0.96200000       6.25937000E-01  
0.96300000       6.29101000E-01  
0.96400000       6.34841000E-01  
0.96500000       6.42156000E-01  
0.96600000       6.50537000E-01  
0.96700000       6.54926000E-01  
0.96800000       6.57453000E-01  
0.96900000       6.60793000E-01  
0.97000000       6.63268000E-01  
0.97100000       6.63309000E-01  
0.97200000       6.63015000E-01  
0.97300000       6.63707000E-01  
0.97400000       6.63809000E-01  
0.97500000       6.64539000E-01  
0.97600000       6.62792000E-01  
0.97700000       6.60814000E-01  
0.97800000       6.56518000E-01  
0.97900000       6.49743000E-01  
0.98000000       6.46734000E-01  
0.98100000       6.46946000E-01  
0.98200000       6.47383000E-01  
0.98300000       6.51182000E-01  
0.98400000       6.58516000E-01  
0.98500000       6.68638000E-01  
0.98600000       6.79624000E-01  
0.98700000       6.87444000E-01  
0.98800000       6.90691000E-01  
0.98900000       6.95219000E-01  
0.99000000       6.94724000E-01  
0.99100000       6.92421000E-01  
0.99200000       6.89822000E-01  
0.99300000       6.86924000E-01  
0.99400000       6.83568000E-01  
0.99500000       6.79286000E-01  
0.99600000       6.75864000E-01  
0.99700000       6.73088000E-01  
0.99800000       6.70172000E-01  
0.99900000       6.67061000E-01  
1.00000000       6.61983000E-01  
1.00100000       6.42067000E-01  
1.00200000       5.99050000E-01  
1.00300000       5.33057000E-01  
1.00400000       4.42880000E-01  
1.00500000       3.46956000E-01  
1.00600000       2.72942000E-01  
1.00700000       2.18169000E-01  
1.00800000       1.74738000E-01  
1.00900000       1.41526000E-01  
1.01000000       1.16087000E-01  
1.01100000       9.68177000E-02  
1.01200000       8.14557000E-02  
1.01300000       7.15379000E-02  
1.01400000       6.13459000E-02  
1.01500000       5.27618000E-02  
1.01600000       4.62115000E-02  
1.01700000       4.18301000E-02  
1.01800000       3.62219000E-02  
1.01900000       3.09249000E-02  
1.02000000       2.52077000E-02  
1.02100000       1.92887000E-02  
1.02200000       1.42540000E-02  
1.02300000       1.02756000E-02  
1.02400000       7.15518000E-03  
1.02500000       4.94115000E-03  
1.02600000       3.41357000E-03  
1.02700000       2.35628000E-03  
1.02800000       1.65114000E-03  
1.02900000       1.17934000E-03  
1.03000000       8.49630000E-04  
1.03100000       6.17475000E-04  
1.03200000       4.58221000E-04  
1.03300000       3.42191000E-04  
1.03400000       2.56668000E-04  
1.03500000       1.96580000E-04  
1.03600000       1.52307000E-04  
1.03700000       1.18771000E-04  
1.03800000       9.38258000E-05  
1.03900000       7.51279000E-05  
1.04000000       6.06408000E-05  
1.04100000       4.95830000E-05  
1.04200000       4.09526000E-05  
1.04300000       3.44651000E-05  
1.04400000       2.94963000E-05  
1.04500000       2.52105000E-05  
1.04600000       2.21304000E-05  
1.04700000       1.98118000E-05  
1.04800000       1.77114000E-05  
1.04900000       1.64592000E-05  
1.05000000       1.51264000E-05  
1.05100000       1.33804000E-05  
1.05200000       1.23113000E-05  
1.05300000       1.09007000E-05  
1.05400000       9.63801000E-06  
1.05500000       9.55590000E-06  
1.05600000       9.29087000E-06  
1.05700000       8.77171000E-06  
1.05800000       8.46764000E-06  
1.05900000       8.01407000E-06  
1.06000000       7.83059000E-06  
1.06100000       7.61487000E-06  
1.06200000       6.95366000E-06  
1.06300000       6.39074000E-06  
1.06400000       6.01165000E-06  
1.06500000       5.77842000E-06  
1.06600000       5.38938000E-06  
1.06700000       5.30403000E-06  
1.06800000       5.28600000E-06  
1.06900000       5.06129000E-06  
1.07000000       5.00797000E-06  
1.07100000       4.85817000E-06  
1.07200000       4.90788000E-06  
1.07300000       5.02090000E-06  
1.07400000       4.68532000E-06  
1.07500000       4.81037000E-06  
1.07600000       4.90570000E-06  
1.07700000       5.22379000E-06  
1.07800000       5.17838000E-06  
1.07900000       4.65027000E-06  
1.08000000       4.84610000E-06  
1.08100000       5.07696000E-06  
1.08200000       4.91646000E-06  
1.08300000       4.73205000E-06  
1.08400000       4.41564000E-06  
1.08500000       4.30804000E-06  
1.08600000       4.51188000E-06  
1.08700000       4.19720000E-06  
1.08800000       3.85728000E-06  
1.08900000       3.59899000E-06  
1.09000000       3.23209000E-06  
1.09100000       3.10926000E-06  
1.09200000       2.98615000E-06  
1.09300000       2.56322000E-06  
1.09400000       2.44767000E-06  
1.09500000       2.52041000E-06  
1.09600000       2.41420000E-06  
1.09700000       2.35800000E-06  
1.09800000       2.15957000E-06  
1.09900000       2.03397000E-06  
1.10000000       2.11332000E-06  
1.10100000       2.03098000E-06  
1.10200000       2.00066000E-06  
1.10300000       2.04498000E-06  
1.10400000       1.99279000E-06  
1.10500000       1.86952000E-06  
1.10600000       1.80920000E-06  
1.10700000       1.86377000E-06  
1.10800000       1.80122000E-06  
1.10900000       1.60726000E-06  
1.11000000       1.40641000E-06  
1.11100000       1.22214000E-06  
1.11200000       1.12028000E-06  
1.11300000       1.04593000E-06  
1.11400000       9.61969000E-07  
1.11500000       8.76940000E-07  
1.11600000       8.11181000E-07  
1.11700000       7.21674000E-07  
1.11800000       6.35647000E-07  
1.11900000       6.41431000E-07  
1.12000000       6.38293000E-07  
1.12100000       5.94777000E-07  
1.12200000       5.02547000E-07  
1.12300000       5.06939000E-07  
1.12400000       5.28889000E-07  
1.12500000       5.44877000E-07  
1.12600000       5.95551000E-07  
1.12700000       5.64439000E-07  
1.12800000       5.64484000E-07  
1.12900000       6.49461000E-07  
1.13000000       7.34215000E-07  
1.13100000       8.07174000E-07  
1.13200000       1.06691000E-06  
1.13300000       1.39791000E-06  
1.13400000       1.62163000E-06  
1.13500000       2.42603000E-06  
1.13600000       3.61664000E-06  
1.13700000       4.33471000E-06  
1.13800000       5.01289000E-06  
1.13900000       4.48874000E-06  
1.14000000       3.10781000E-06  
1.14100000       1.95888000E-06  
1.14200000       1.21775000E-06  
1.14300000       7.59481000E-07  
1.14400000       5.21865000E-07  
1.14500000       3.88656000E-07  
1.14600000       3.04834000E-07  
1.14700000       2.45831000E-07  
1.14800000       1.88765000E-07  
1.14900000       1.53638000E-07  
1.15000000       1.31413000E-07  
1.15100000       1.07193000E-07  
1.15200000       9.22850000E-08  
1.15300000       8.17736000E-08  
1.15400000       7.03149000E-08  
1.15500000       6.42610000E-08  
1.15600000       5.75564000E-08  
1.15700000       5.09847000E-08  
1.15800000       4.54894000E-08  
1.15900000       3.85331000E-08  
1.16000000       3.44175000E-08  
1.16100000       3.16946000E-08  
1.16200000       2.95224000E-08  
1.16300000       2.63031000E-08  
1.16400000       2.39355000E-08  
1.16500000       2.05313000E-08  
1.16600000       1.59482000E-08  
1.16700000       1.43126000E-08  
1.16800000       1.37243000E-08  
1.16900000       1.15141000E-08  
1.17000000       9.37652000E-09  
1.17100000       0.00000000E+00  
1.17200000       0.00000000E+00  
1.17300000       0.00000000E+00  
1.17400000       0.00000000E+00  
1.17500000       0.00000000E+00  
1.17600000       0.00000000E+00  
1.17700000       0.00000000E+00  
1.17800000       0.00000000E+00  
1.17900000       0.00000000E+00  
1.18000000       0.00000000E+00  
1.18100000       0.00000000E+00  
1.18200000       0.00000000E+00  
1.18300000       0.00000000E+00  
1.18400000       0.00000000E+00  
1.18500000       0.00000000E+00  
1.18600000       0.00000000E+00  
1.18700000       0.00000000E+00  
1.18800000       0.00000000E+00  
1.18900000       0.00000000E+00  
1.19000000       0.00000000E+00  
1.19100000       0.00000000E+00  
1.19200000       0.00000000E+00  
1.19300000       0.00000000E+00  
1.19400000       0.00000000E+00  
1.19500000       0.00000000E+00  
1.19600000       0.00000000E+00  
1.19700000       0.00000000E+00  
1.19800000       0.00000000E+00  
1.19900000       0.00000000E+00  
1.20000000       0.00000000E+00  
1.20100000       0.00000000E+00  
1.20200000       0.00000000E+00  
1.20300000       0.00000000E+00  
1.20400000       0.00000000E+00  
1.20500000       0.00000000E+00  
1.20600000       0.00000000E+00  
1.20700000       0.00000000E+00  
1.20800000       0.00000000E+00  
1.20900000       0.00000000E+00  
1.21000000       0.00000000E+00  
1.21100000       0.00000000E+00  
1.21200000       0.00000000E+00  
1.21300000       0.00000000E+00  
1.21400000       0.00000000E+00  
1.21500000       0.00000000E+00  
1.21600000       0.00000000E+00  
1.21700000       0.00000000E+00  
1.21800000       0.00000000E+00  
1.21900000       0.00000000E+00  
1.22000000       0.00000000E+00  
1.22100000       0.00000000E+00  
1.22200000       0.00000000E+00  
1.22300000       0.00000000E+00  
1.22400000       0.00000000E+00  
1.22500000       0.00000000E+00  
1.22600000       0.00000000E+00  
1.22700000       0.00000000E+00  
1.22800000       0.00000000E+00  
1.22900000       0.00000000E+00  
1.23000000       0.00000000E+00  
1.23100000       0.00000000E+00  
1.23200000       0.00000000E+00  
1.23300000       0.00000000E+00  
1.23400000       0.00000000E+00  
1.23500000       0.00000000E+00  
1.23600000       0.00000000E+00  
1.23700000       0.00000000E+00  
1.23800000       0.00000000E+00  
1.23900000       0.00000000E+00  
1.24000000       0.00000000E+00  
1.24100000       0.00000000E+00  
1.24200000       0.00000000E+00  
1.24300000       0.00000000E+00  
1.24400000       0.00000000E+00  
1.24500000       0.00000000E+00  
1.24600000       0.00000000E+00  
1.24700000       0.00000000E+00  
1.24800000       0.00000000E+00  
1.24900000       0.00000000E+00  
1.25000000       0.00000000E+00  
1.25100000       0.00000000E+00  
1.25200000       0.00000000E+00  
1.25300000       0.00000000E+00  
1.25400000       0.00000000E+00  
1.25500000       0.00000000E+00  
1.25600000       0.00000000E+00  
1.25700000       0.00000000E+00  
1.25800000       0.00000000E+00  
1.25900000       0.00000000E+00  
1.26000000       0.00000000E+00  
1.26100000       0.00000000E+00  
1.26200000       0.00000000E+00  
1.26300000       0.00000000E+00  
1.26400000       0.00000000E+00  
1.26500000       0.00000000E+00  
1.26600000       0.00000000E+00  
1.26700000       0.00000000E+00  
1.26800000       0.00000000E+00  
1.26900000       0.00000000E+00  
1.27000000       0.00000000E+00  
1.27100000       0.00000000E+00  
1.27200000       0.00000000E+00  
1.27300000       0.00000000E+00  
1.27400000       0.00000000E+00  
1.27500000       0.00000000E+00  
1.27600000       0.00000000E+00  
1.27700000       0.00000000E+00  
1.27800000       0.00000000E+00  
1.27900000       0.00000000E+00  
1.28000000       0.00000000E+00  
1.28100000       0.00000000E+00  
1.28200000       0.00000000E+00  
1.28300000       0.00000000E+00  
1.28400000       0.00000000E+00  
1.28500000       0.00000000E+00  
1.28600000       0.00000000E+00  
1.28700000       0.00000000E+00  
1.28800000       0.00000000E+00  
1.28900000       0.00000000E+00  
1.29000000       0.00000000E+00  
1.29100000       0.00000000E+00  
1.29200000       0.00000000E+00  
1.29300000       0.00000000E+00  
1.29400000       0.00000000E+00  
1.29500000       0.00000000E+00  
1.29600000       0.00000000E+00  
1.29700000       0.00000000E+00  
1.29800000       0.00000000E+00  
1.29900000       0.00000000E+00  
1.30000000       0.00000000E+00  
1.30100000       0.00000000E+00  
1.30200000       0.00000000E+00  
1.30300000       0.00000000E+00  
1.30400000       0.00000000E+00  
1.30500000       0.00000000E+00  
1.30600000       0.00000000E+00  
1.30700000       0.00000000E+00  
1.30800000       0.00000000E+00  
1.30900000       0.00000000E+00  
1.31000000       0.00000000E+00  
1.31100000       0.00000000E+00  
1.31200000       0.00000000E+00  
1.31300000       0.00000000E+00  
1.31400000       0.00000000E+00  
1.31500000       0.00000000E+00  
1.31600000       0.00000000E+00  
1.31700000       0.00000000E+00  
1.31800000       8.32461000E-09  
1.31900000       1.11473000E-08  
1.32000000       1.31156000E-08  
1.32100000       1.41322000E-08  
1.32200000       1.71063000E-08  
1.32300000       2.13221000E-08  
1.32400000       2.47887000E-08  
1.32500000       2.97701000E-08  
1.32600000       3.05378000E-08  
1.32700000       2.97834000E-08  
1.32800000       3.23788000E-08  
1.32900000       3.49487000E-08  
1.33000000       3.94042000E-08  
1.33100000       4.13594000E-08  
1.33200000       4.19761000E-08  
1.33300000       4.34953000E-08  
1.33400000       4.29473000E-08  
1.33500000       4.34580000E-08  
1.33600000       4.67503000E-08  
1.33700000       4.76634000E-08  
1.33800000       4.68029000E-08  
1.33900000       4.96035000E-08  
1.34000000       5.32303000E-08  
1.34100000       5.52087000E-08  
1.34200000       6.00236000E-08  
1.34300000       6.35863000E-08  
1.34400000       6.95241000E-08  
1.34500000       7.93664000E-08  
1.34600000       8.17704000E-08  
1.34700000       9.65515000E-08  
1.34800000       1.23515000E-07  
1.34900000       1.46185000E-07  
1.35000000       1.89316000E-07  
1.35100000       2.32242000E-07  
1.35200000       2.89397000E-07  
1.35300000       3.66690000E-07  
1.35400000       4.64509000E-07  
1.35500000       5.23192000E-07  
1.35600000       5.92996000E-07  
1.35700000       5.97235000E-07  
1.35800000       5.42847000E-07  
1.35900000       4.78124000E-07  
1.36000000       3.46696000E-07  
1.36100000       2.61196000E-07  
1.36200000       2.01464000E-07  
1.36300000       1.72433000E-07  
1.36400000       1.66497000E-07  
1.36500000       1.36556000E-07  
1.36600000       1.15352000E-07  
1.36700000       1.12790000E-07  
1.36800000       9.63720000E-08  
1.36900000       8.09241000E-08  
1.37000000       7.46876000E-08  
1.37100000       6.51932000E-08  
1.37200000       6.52126000E-08  
1.37300000       6.04221000E-08  
1.37400000       5.72342000E-08  
1.37500000       5.64037000E-08  
1.37600000       5.12897000E-08  
1.37700000       5.11911000E-08  
1.37800000       4.92294000E-08  
1.37900000       4.48963000E-08  
1.38000000       4.94410000E-08  
1.38100000       4.69685000E-08  
1.38200000       4.18747000E-08  
1.38300000       4.37393000E-08  
1.38400000       4.91207000E-08  
1.38500000       4.70579000E-08  
1.38600000       4.34033000E-08  
1.38700000       4.50101000E-08  
1.38800000       4.97987000E-08  
1.38900000       5.06280000E-08  
1.39000000       4.91904000E-08  
1.39100000       5.43444000E-08  
1.39200000       5.88708000E-08  
1.39300000       6.03047000E-08  
1.39400000       6.11998000E-08  
1.39500000       6.78895000E-08  
1.39600000       7.73337000E-08  
1.39700000       7.45742000E-08  
1.39800000       7.91523000E-08  
1.39900000       8.48374000E-08  
1.40000000       8.75851000E-08  
1.40100000       1.07110000E-07  
1.40200000       1.19054000E-07  
1.40300000       1.21717000E-07  
1.40400000       1.51256000E-07  
1.40500000       1.65206000E-07  
1.40600000       1.90203000E-07  
1.40700000       2.06111000E-07  
1.40800000       2.37894000E-07  
1.40900000       3.13228000E-07  
1.41000000       3.57529000E-07  
1.41100000       3.87751000E-07  
1.41200000       4.57865000E-07  
1.41300000       5.24073000E-07  
1.41400000       5.94284000E-07  
1.41500000       6.66235000E-07  
1.41600000       6.51025000E-07  
1.41700000       6.52265000E-07  
1.41800000       7.04258000E-07  
1.41900000       7.27203000E-07  
1.42000000       7.24890000E-07  
1.42100000       6.97519000E-07  
1.42200000       6.36220000E-07  
1.42300000       5.94247000E-07  
1.42400000       5.25924000E-07  
1.42500000       4.73991000E-07  
1.42600000       4.31073000E-07  
1.42700000       4.04234000E-07  
1.42800000       4.11824000E-07  
1.42900000       3.71139000E-07  
1.43000000       3.59218000E-07  
1.43100000       3.71166000E-07  
1.43200000       3.76028000E-07  
1.43300000       3.64049000E-07  
1.43400000       3.53611000E-07  
1.43500000       3.44988000E-07  
1.43600000       3.21839000E-07  
1.43700000       3.01710000E-07  
1.43800000       2.95440000E-07  
1.43900000       3.11882000E-07  
1.44000000       3.32078000E-07  
1.44100000       3.20747000E-07  
1.44200000       3.30370000E-07  
1.44300000       3.37005000E-07  
1.44400000       3.75097000E-07  
1.44500000       3.96534000E-07  
1.44600000       3.80575000E-07  
1.44700000       4.22929000E-07  
1.44800000       4.21969000E-07  
1.44900000       4.21939000E-07  
1.45000000       4.88196000E-07  
1.45100000       5.01753000E-07  
1.45200000       5.01914000E-07  
1.45300000       5.70337000E-07  
1.45400000       6.53307000E-07  
1.45500000       7.18304000E-07  
1.45600000       6.95675000E-07  
1.45700000       7.19506000E-07  
1.45800000       7.84791000E-07  
1.45900000       7.86226000E-07  
1.46000000       8.47013000E-07  
1.46100000       9.99422000E-07  
1.46200000       1.06941000E-06  
1.46300000       1.08847000E-06  
1.46400000       1.14325000E-06  
1.46500000       1.28187000E-06  
1.46600000       1.32420000E-06  
1.46700000       1.26377000E-06  
1.46800000       1.37889000E-06  
1.46900000       1.47479000E-06  
1.47000000       1.50094000E-06  
1.47100000       1.48884000E-06  
1.47200000       1.42405000E-06  
1.47300000       1.40605000E-06  
1.47400000       1.48208000E-06  
1.47500000       1.46168000E-06  
1.47600000       1.45578000E-06  
1.47700000       1.48878000E-06  
1.47800000       1.48212000E-06  
1.47900000       1.39622000E-06  
1.48000000       1.38899000E-06  
1.48100000       1.50030000E-06  
1.48200000       1.53382000E-06  
1.48300000       1.48201000E-06  
1.48400000       1.50548000E-06  
1.48500000       1.60012000E-06  
1.48600000       1.62729000E-06  
1.48700000       1.65767000E-06  
1.48800000       1.64492000E-06  
1.48900000       1.60924000E-06  
1.49000000       1.61613000E-06  
1.49100000       1.73311000E-06  
1.49200000       1.75658000E-06  
1.49300000       1.75540000E-06  
1.49400000       1.78200000E-06  
1.49500000       1.87330000E-06  
1.49600000       2.08315000E-06  
1.49700000       2.14863000E-06  
1.49800000       2.24357000E-06  
1.49900000       2.36462000E-06  
1.50000000       2.28939000E-06  
1.50100000       2.46666000E-06  
1.50200000       2.73209000E-06  
1.50300000       2.71335000E-06  
1.50400000       2.84080000E-06  
1.50500000       3.05981000E-06  
1.50600000       3.19519000E-06  
1.50700000       3.56079000E-06  
1.50800000       3.91606000E-06  
1.50900000       4.07928000E-06  
1.51000000       4.12185000E-06  
1.51100000       4.08748000E-06  
1.51200000       4.53885000E-06  
1.51300000       4.81977000E-06  
1.51400000       4.99345000E-06  
1.51500000       4.93680000E-06  
1.51600000       5.04301000E-06  
1.51700000       5.62812000E-06  
1.51800000       5.29066000E-06  
1.51900000       5.29236000E-06  
1.52000000       5.93435000E-06  
1.52100000       6.16174000E-06  
1.52200000       5.78271000E-06  
1.52300000       5.40138000E-06  
1.52400000       5.65116000E-06  
1.52500000       5.62301000E-06  
1.52600000       5.62940000E-06  
1.52700000       5.58059000E-06  
1.52800000       5.31652000E-06  
1.52900000       5.23837000E-06  
1.53000000       5.12157000E-06  
1.53100000       5.21153000E-06  
1.53200000       5.08249000E-06  
1.53300000       4.89467000E-06  
1.53400000       4.88221000E-06  
1.53500000       4.87164000E-06  
1.53600000       5.13532000E-06  
1.53700000       4.60628000E-06  
1.53800000       4.31071000E-06  
1.53900000       4.39417000E-06  
1.54000000       4.90320000E-06  
1.54100000       5.10655000E-06  
1.54200000       4.65712000E-06  
1.54300000       5.12137000E-06  
1.54400000       5.02159000E-06  
1.54500000       4.72335000E-06  
1.54600000       5.16619000E-06  
1.54700000       5.24924000E-06  
1.54800000       5.17306000E-06  
1.54900000       4.98677000E-06  
1.55000000       4.97406000E-06  
1.55100000       5.03873000E-06  
1.55200000       5.06366000E-06  
1.55300000       5.14558000E-06  
1.55400000       5.25589000E-06  
1.55500000       5.57875000E-06  
1.55600000       5.80295000E-06  
1.55700000       5.90791000E-06  
1.55800000       5.89670000E-06  
1.55900000       6.11297000E-06  
1.56000000       6.17776000E-06  
1.56100000       5.90400000E-06  
1.56200000       6.05355000E-06  
1.56300000       6.20413000E-06  
1.56400000       6.09785000E-06  
1.56500000       6.10138000E-06  
1.56600000       5.97366000E-06  
1.56700000       5.95319000E-06  
1.56800000       5.98769000E-06  
1.56900000       6.27353000E-06  
1.57000000       6.42954000E-06  
1.57100000       6.37947000E-06  
1.57200000       6.30509000E-06  
1.57300000       5.94245000E-06  
1.57400000       5.85214000E-06  
1.57500000       6.14038000E-06  
1.57600000       6.40187000E-06  
1.57700000       6.26843000E-06  
1.57800000       5.97568000E-06  
1.57900000       5.69065000E-06  
1.58000000       6.15157000E-06  
1.58100000       6.37869000E-06  
1.58200000       5.75676000E-06  
1.58300000       5.89551000E-06  
1.58400000       5.97196000E-06  
1.58500000       5.83152000E-06  
1.58600000       5.88813000E-06  
1.58700000       5.66329000E-06  
1.58800000       5.64815000E-06  
1.58900000       5.89561000E-06  
1.59000000       5.93172000E-06  
1.59100000       5.87083000E-06  
1.59200000       5.77878000E-06  
1.59300000       5.77130000E-06  
1.59400000       5.59407000E-06  
1.59500000       5.35791000E-06  
1.59600000       5.31653000E-06  
1.59700000       5.78041000E-06  
1.59800000       5.82834000E-06  
1.59900000       5.40589000E-06  
1.60000000       5.77569000E-06  
1.60100000       6.34211000E-06  
1.60200000       6.22367000E-06  
1.60300000       5.63418000E-06  
1.60400000       5.77911000E-06  
1.60500000       6.10458000E-06  
1.60600000       6.24587000E-06  
1.60700000       6.17150000E-06  
1.60800000       6.13514000E-06  
1.60900000       5.91567000E-06  
1.61000000       6.45413000E-06  
1.61100000       6.81592000E-06  
1.61200000       6.24067000E-06  
1.61300000       6.22518000E-06  
1.61400000       6.25451000E-06  
1.61500000       6.56529000E-06  
1.61600000       6.11635000E-06  
1.61700000       6.07007000E-06  
1.61800000       6.66182000E-06  
1.61900000       6.67808000E-06  
1.62000000       6.47528000E-06  
1.62100000       6.41138000E-06  
1.62200000       6.82514000E-06  
1.62300000       7.16117000E-06  
1.62400000       7.06101000E-06  
1.62500000       6.90294000E-06  
1.62600000       6.67253000E-06  
1.62700000       6.48705000E-06  
1.62800000       6.39131000E-06  
1.62900000       6.40573000E-06  
1.63000000       6.37578000E-06  
1.63100000       7.06094000E-06  
1.63200000       7.35517000E-06  
1.63300000       6.82890000E-06  
1.63400000       6.65522000E-06  
1.63500000       7.08073000E-06  
1.63600000       6.76626000E-06  
1.63700000       6.44507000E-06  
1.63800000       6.59654000E-06  
1.63900000       6.56714000E-06  
1.64000000       6.86462000E-06  
1.64100000       7.14779000E-06  
1.64200000       7.22568000E-06  
1.64300000       7.21533000E-06  
1.64400000       7.33699000E-06  
1.64500000       7.48687000E-06  
1.64600000       7.03392000E-06  
1.64700000       7.04951000E-06  
1.64800000       7.20979000E-06  
1.64900000       6.98937000E-06  
1.65000000       7.27074000E-06  
1.65100000       7.37110000E-06  
1.65200000       7.16082000E-06  
1.65300000       7.20634000E-06  
1.65400000       6.90773000E-06  
1.65500000       7.28538000E-06  
1.65600000       7.61198000E-06  
1.65700000       7.83292000E-06  
1.65800000       7.94221000E-06  
1.65900000       7.34801000E-06  
1.66000000       6.95420000E-06  
1.66100000       7.20874000E-06  
1.66200000       7.56660000E-06  
1.66300000       7.55019000E-06  
1.66400000       7.41412000E-06  
1.66500000       7.32475000E-06  
1.66600000       7.29473000E-06  
1.66700000       7.40584000E-06  
1.66800000       7.16107000E-06  
1.66900000       7.39060000E-06  
1.67000000       7.45275000E-06  
1.67100000       7.72084000E-06  
1.67200000       8.00045000E-06  
1.67300000       7.87016000E-06  
1.67400000       7.58424000E-06  
1.67500000       7.62417000E-06  
1.67600000       7.30610000E-06  
1.67700000       7.32174000E-06  
1.67800000       7.45240000E-06  
1.67900000       7.28649000E-06  
1.68000000       7.23333000E-06  
1.68100000       7.37285000E-06  
1.68200000       7.33645000E-06  
1.68300000       7.29256000E-06  
1.68400000       7.79449000E-06  
1.68500000       7.84951000E-06  
1.68600000       7.41684000E-06  
1.68700000       7.05607000E-06  
1.68800000       7.31065000E-06  
1.68900000       7.12175000E-06  
1.69000000       7.31979000E-06  
1.69100000       7.16205000E-06  
1.69200000       6.68351000E-06  
1.69300000       6.83294000E-06  
1.69400000       7.04283000E-06  
1.69500000       6.91548000E-06  
1.69600000       6.65506000E-06  
1.69700000       6.89838000E-06  
1.69800000       6.70104000E-06  
1.69900000       6.97111000E-06  
1.70000000       7.31517000E-06  
1.70100000       6.99052000E-06  
1.70200000       6.46526000E-06  
1.70300000       6.41006000E-06  
1.70400000       6.78506000E-06  
1.70500000       6.67482000E-06  
1.70600000       6.19181000E-06  
1.70700000       6.20634000E-06  
1.70800000       6.60874000E-06  
1.70900000       6.87292000E-06  
1.71000000       6.93254000E-06  
1.71100000       7.22556000E-06  
1.71200000       7.54943000E-06  
1.71300000       7.22002000E-06  
1.71400000       7.01328000E-06  
1.71500000       7.31642000E-06  
1.71600000       7.63243000E-06  
1.71700000       7.61712000E-06  
1.71800000       7.32460000E-06  
1.71900000       7.15719000E-06  
1.72000000       6.72156000E-06  
1.72100000       6.93281000E-06  
1.72200000       7.25455000E-06  
1.72300000       7.36734000E-06  
1.72400000       7.81260000E-06  
1.72500000       7.66401000E-06  
1.72600000       7.16184000E-06  
1.72700000       6.88353000E-06  
1.72800000       7.45385000E-06  
1.72900000       8.33066000E-06  
1.73000000       8.66253000E-06  
1.73100000       8.31776000E-06  
1.73200000       8.57000000E-06  
1.73300000       8.96170000E-06  
1.73400000       8.92051000E-06  
1.73500000       8.82117000E-06  
1.73600000       8.89620000E-06  
1.73700000       9.22962000E-06  
1.73800000       9.34626000E-06  
1.73900000       9.01085000E-06  
1.74000000       8.64192000E-06  
1.74100000       8.85886000E-06  
1.74200000       9.02080000E-06  
1.74300000       9.31054000E-06  
1.74400000       9.86615000E-06  
1.74500000       1.00665000E-05  
1.74600000       9.51539000E-06  
1.74700000       9.72510000E-06  
1.74800000       9.81558000E-06  
1.74900000       9.04955000E-06  
1.75000000       9.30500000E-06  
1.75100000       9.64629000E-06  
1.75200000       9.56706000E-06  
1.75300000       9.15973000E-06  
1.75400000       8.89709000E-06  
1.75500000       9.25417000E-06  
1.75600000       9.71659000E-06  
1.75700000       9.76116000E-06  
1.75800000       9.08457000E-06  
1.75900000       8.86119000E-06  
1.76000000       8.70738000E-06  
1.76100000       8.88590000E-06  
1.76200000       8.72289000E-06  
1.76300000       8.35378000E-06  
1.76400000       8.71271000E-06  
1.76500000       8.75537000E-06  
1.76600000       8.46782000E-06  
1.76700000       8.84282000E-06  
1.76800000       8.96256000E-06  
1.76900000       8.51250000E-06  
1.77000000       8.47192000E-06  
1.77100000       8.87194000E-06  
1.77200000       8.03664000E-06  
1.77300000       7.69647000E-06  
1.77400000       8.74404000E-06  
1.77500000       9.18245000E-06  
1.77600000       8.50810000E-06  
1.77700000       7.64410000E-06  
1.77800000       8.30967000E-06  
1.77900000       8.78485000E-06  
1.78000000       8.63571000E-06  
1.78100000       8.56467000E-06  
1.78200000       8.79700000E-06  
1.78300000       9.18248000E-06  
1.78400000       8.57584000E-06  
1.78500000       8.45350000E-06  
1.78600000       8.61884000E-06  
1.78700000       8.62301000E-06  
1.78800000       8.33339000E-06  
1.78900000       8.63175000E-06  
1.79000000       8.82917000E-06  
1.79100000       9.06422000E-06  
1.79200000       9.54105000E-06  
1.79300000       9.26499000E-06  
1.79400000       9.15712000E-06  
1.79500000       9.00044000E-06  
1.79600000       9.27559000E-06  
1.79700000       9.32663000E-06  
1.79800000       8.64571000E-06  
1.79900000       8.85734000E-06  
1.80000000       9.10226000E-06  
1.80100000       1.00372000E-05  
1.80200000       1.05683000E-05  
1.80300000       1.01731000E-05  
1.80400000       9.71313000E-06  
1.80500000       9.50940000E-06  
1.80600000       9.67367000E-06  
1.80700000       9.85308000E-06  
1.80800000       1.01390000E-05  
1.80900000       9.44508000E-06  
1.81000000       9.71025000E-06  
1.81100000       1.11656000E-05  
1.81200000       1.08705000E-05  
1.81300000       1.08531000E-05  
1.81400000       1.08207000E-05  
1.81500000       1.06796000E-05  
1.81600000       1.08208000E-05  
1.81700000       1.10309000E-05  
1.81800000       1.18414000E-05  
1.81900000       1.21217000E-05  
1.82000000       1.16361000E-05  
1.82100000       1.15013000E-05  
1.82200000       1.19698000E-05  
1.82300000       1.15977000E-05  
1.82400000       1.18345000E-05  
1.82500000       1.19454000E-05  
1.82600000       1.24669000E-05  
1.82700000       1.25700000E-05  
1.82800000       1.26125000E-05  
1.82900000       1.27924000E-05  
1.83000000       1.20629000E-05  
1.83100000       1.37515000E-05  
1.83200000       1.41977000E-05  
1.83300000       1.31657000E-05  
1.83400000       1.38658000E-05  
1.83500000       1.43103000E-05  
1.83600000       1.31739000E-05  
1.83700000       1.23367000E-05  
1.83800000       1.26094000E-05  
1.83900000       1.32204000E-05  
1.84000000       1.37964000E-05  
1.84100000       1.38459000E-05  
1.84200000       1.29291000E-05  
1.84300000       1.30042000E-05  
1.84400000       1.42293000E-05  
1.84500000       1.53816000E-05  
1.84600000       1.35042000E-05  
1.84700000       1.21727000E-05  
1.84800000       1.31304000E-05  
1.84900000       1.38341000E-05  
1.85000000       1.36925000E-05  
1.85100000       1.33329000E-05  
1.85200000       1.41200000E-05  
1.85300000       1.42684000E-05  
1.85400000       1.34549000E-05  
1.85500000       1.31252000E-05  
1.85600000       1.37455000E-05  
1.85700000       1.34433000E-05  
1.85800000       1.25526000E-05  
1.85900000       1.34645000E-05  
1.86000000       1.35757000E-05  
1.86100000       1.42725000E-05  
1.86200000       1.52236000E-05  
1.86300000       1.38488000E-05  
1.86400000       1.32378000E-05  
1.86500000       1.36416000E-05  
1.86600000       1.41223000E-05  
1.86700000       1.40289000E-05  
1.86800000       1.44269000E-05  
1.86900000       1.44372000E-05  
1.87000000       1.42783000E-05  
1.87100000       1.41142000E-05  
1.87200000       1.41087000E-05  
1.87300000       1.38194000E-05  
1.87400000       1.45884000E-05  
1.87500000       1.48166000E-05  
1.87600000       1.41712000E-05  
1.87700000       1.46281000E-05  
1.87800000       1.35477000E-05  
1.87900000       1.25387000E-05  
1.88000000       1.36029000E-05  
1.88100000       1.40950000E-05  
1.88200000       1.37859000E-05  
1.88300000       1.40018000E-05  
1.88400000       1.42271000E-05  
1.88500000       1.36245000E-05  
1.88600000       1.37169000E-05  
1.88700000       1.41909000E-05  
1.88800000       1.34421000E-05  
1.88900000       1.26268000E-05  
1.89000000       1.36041000E-05  
1.89100000       1.38159000E-05  
1.89200000       1.33897000E-05  
1.89300000       1.41172000E-05  
1.89400000       1.43001000E-05  
1.89500000       1.32565000E-05  
1.89600000       1.30236000E-05  
1.89700000       1.35595000E-05  
1.89800000       1.37700000E-05  
1.89900000       1.31206000E-05  
1.90000000       1.29527000E-05  
1.90100000       1.33180000E-05  
1.90200000       1.35043000E-05  
1.90300000       1.33069000E-05  
1.90400000       1.23722000E-05  
1.90500000       1.25696000E-05  
1.90600000       1.29968000E-05  
1.90700000       1.30927000E-05  
1.90800000       1.32418000E-05  
1.90900000       1.31563000E-05  
1.91000000       1.19822000E-05  
1.91100000       1.23135000E-05  
1.91200000       1.36158000E-05  
1.91300000       1.36357000E-05  
1.91400000       1.26544000E-05  
1.91500000       1.21646000E-05  
1.91600000       1.28473000E-05  
1.91700000       1.25807000E-05  
1.91800000       1.09581000E-05  
1.91900000       1.15917000E-05  
1.92000000       1.25778000E-05  
1.92100000       1.22824000E-05  
1.92200000       1.17580000E-05  
1.92300000       1.18447000E-05  
1.92400000       1.19465000E-05  
1.92500000       1.13518000E-05  
1.92600000       1.10835000E-05  
1.92700000       1.17569000E-05  
1.92800000       1.22491000E-05  
1.92900000       1.18883000E-05  
1.93000000       1.13839000E-05  
1.93100000       1.10038000E-05  
1.93200000       1.08891000E-05  
1.93300000       1.12926000E-05  
1.93400000       1.18659000E-05  
1.93500000       1.18445000E-05  
1.93600000       1.20312000E-05  
1.93700000       1.16779000E-05  
1.93800000       1.22367000E-05  
1.93900000       1.24474000E-05  
1.94000000       1.18551000E-05  
1.94100000       1.16409000E-05  
1.94200000       1.21066000E-05  
1.94300000       1.22778000E-05  
1.94400000       1.22450000E-05  
1.94500000       1.22371000E-05  
1.94600000       1.16198000E-05  
1.94700000       1.19306000E-05  
1.94800000       1.21920000E-05  
1.94900000       1.25667000E-05  
1.95000000       1.27875000E-05  
1.95100000       1.31168000E-05  
1.95200000       1.31334000E-05  
1.95300000       1.31475000E-05  
1.95400000       1.31941000E-05  
1.95500000       1.34103000E-05  
1.95600000       1.38772000E-05  
1.95700000       1.36735000E-05  
1.95800000       1.33179000E-05  
1.95900000       1.32269000E-05  
1.96000000       1.36674000E-05  
1.96100000       1.40393000E-05  
1.96200000       1.33397000E-05  
1.96300000       1.30527000E-05  
1.96400000       1.24135000E-05  
1.96500000       1.21231000E-05  
1.96600000       1.44475000E-05  
1.96700000       1.43816000E-05  
1.96800000       1.31384000E-05  
1.96900000       1.39975000E-05  
1.97000000       1.46219000E-05  
1.97100000       1.39120000E-05  
1.97200000       1.42008000E-05  
1.97300000       1.45179000E-05  
1.97400000       1.40081000E-05  
1.97500000       1.40067000E-05  
1.97600000       1.39442000E-05  
1.97700000       1.29649000E-05  
1.97800000       1.32802000E-05  
1.97900000       1.33318000E-05  
1.98000000       1.26650000E-05  
1.98100000       1.21702000E-05  
1.98200000       1.22391000E-05  
1.98300000       1.21178000E-05  
1.98400000       1.19113000E-05  
1.98500000       1.16071000E-05  
1.98600000       1.10153000E-05  
1.98700000       1.07212000E-05  
1.98800000       1.04002000E-05  
1.98900000       9.89885000E-06  
1.99000000       9.72698000E-06  
1.99100000       9.97744000E-06  
1.99200000       1.01741000E-05  
1.99300000       9.72531000E-06  
1.99400000       9.51131000E-06  
1.99500000       9.72290000E-06  
1.99600000       9.19468000E-06  
1.99700000       9.59260000E-06  
1.99800000       8.87749000E-06  
1.99900000       8.24530000E-06  
2.00000000       8.71138000E-06  
2.00100000       8.72187000E-06  
2.00200000       8.55921000E-06  
2.00300000       8.18235000E-06  
2.00400000       8.05591000E-06  
2.00500000       8.09834000E-06  
2.00600000       7.89677000E-06  
2.00700000       7.46223000E-06  
2.00800000       7.66659000E-06  
2.00900000       8.40133000E-06  
2.01000000       8.10561000E-06  
2.01100000       7.43603000E-06  
2.01200000       7.34895000E-06  
2.01300000       6.82766000E-06  
2.01400000       6.45990000E-06  
2.01500000       6.93035000E-06  
2.01600000       7.33624000E-06  
2.01700000       6.99846000E-06  
2.01800000       6.51880000E-06  
2.01900000       7.06220000E-06  
2.02000000       7.07360000E-06  
2.02100000       7.05118000E-06  
2.02200000       6.91160000E-06  
2.02300000       6.78126000E-06  
2.02400000       6.76074000E-06  
2.02500000       6.87797000E-06  
2.02600000       6.75726000E-06  
2.02700000       6.87100000E-06  
2.02800000       7.42114000E-06  
2.02900000       7.21793000E-06  
2.03000000       6.87240000E-06  
2.03100000       7.15602000E-06  
2.03200000       6.99476000E-06  
2.03300000       6.57845000E-06  
2.03400000       6.62536000E-06  
2.03500000       7.08085000E-06  
2.03600000       7.50564000E-06  
2.03700000       7.26006000E-06  
2.03800000       7.79628000E-06  
2.03900000       7.99257000E-06  
2.04000000       7.74139000E-06  
2.04100000       7.67364000E-06  
2.04200000       7.38827000E-06  
2.04300000       7.68262000E-06  
2.04400000       8.04120000E-06  
2.04500000       7.82281000E-06  
2.04600000       7.74199000E-06  
2.04700000       7.10289000E-06  
2.04800000       7.19687000E-06  
2.04900000       7.90858000E-06  
2.05000000       7.35183000E-06  
2.05100000       6.98751000E-06  
2.05200000       7.47488000E-06  
2.05300000       7.28442000E-06  
2.05400000       7.01346000E-06  
2.05500000       7.09357000E-06  
2.05600000       7.91501000E-06  
2.05700000       8.56086000E-06  
2.05800000       8.45595000E-06  
2.05900000       8.58931000E-06  
2.06000000       8.27346000E-06  
2.06100000       7.55574000E-06  
2.06200000       7.96613000E-06  
2.06300000       8.61846000E-06  
2.06400000       8.84487000E-06  
2.06500000       8.66276000E-06  
2.06600000       8.11806000E-06  
2.06700000       7.91644000E-06  
2.06800000       7.66844000E-06  
2.06900000       7.97091000E-06  
2.07000000       8.17433000E-06  
2.07100000       7.80910000E-06  
2.07200000       7.61361000E-06  
2.07300000       7.91884000E-06  
2.07400000       8.09498000E-06  
2.07500000       7.91756000E-06  
2.07600000       7.60910000E-06  
2.07700000       7.68956000E-06  
2.07800000       7.88593000E-06  
2.07900000       7.92381000E-06  
2.08000000       7.32002000E-06  
2.08100000       7.14095000E-06  
2.08200000       7.46802000E-06  
2.08300000       7.46813000E-06  
2.08400000       7.27961000E-06  
2.08500000       8.33317000E-06  
2.08600000       8.48762000E-06  
2.08700000       8.34941000E-06  
2.08800000       8.38089000E-06  
2.08900000       7.97212000E-06  
2.09000000       8.65384000E-06  
2.09100000       8.36663000E-06  
2.09200000       7.81792000E-06  
2.09300000       8.28485000E-06  
2.09400000       8.58341000E-06  
2.09500000       8.48862000E-06  
2.09600000       8.94688000E-06  
2.09700000       9.16867000E-06  
2.09800000       1.01461000E-05  
2.09900000       1.11051000E-05  
2.10000000       1.10158000E-05  
2.10100000       1.04113000E-05  
2.10200000       1.03201000E-05  
2.10300000       1.22450000E-05  
2.10400000       1.26354000E-05  
2.10500000       1.18523000E-05  
2.10600000       1.15466000E-05  
2.10700000       1.23728000E-05  
2.10800000       1.36512000E-05  
2.10900000       1.44464000E-05  
2.11000000       1.47488000E-05  
2.11100000       1.50687000E-05  
2.11200000       1.50567000E-05  
2.11300000       1.58210000E-05  
2.11400000       1.63257000E-05  
2.11500000       1.66010000E-05  
2.11600000       1.87606000E-05  
2.11700000       1.90400000E-05  
2.11800000       1.73919000E-05  
2.11900000       1.69668000E-05  
2.12000000       1.74657000E-05  
2.12100000       1.70256000E-05  
2.12200000       1.66119000E-05  
2.12300000       1.53926000E-05  
2.12400000       1.39859000E-05  
2.12500000       1.24753000E-05  
2.12600000       1.17568000E-05  
2.12700000       1.07025000E-05  
2.12800000       1.01310000E-05  
2.12900000       9.32740000E-06  
2.13000000       7.86576000E-06  
2.13100000       6.95147000E-06  
2.13200000       6.13893000E-06  
2.13300000       5.72809000E-06  
2.13400000       5.14685000E-06  
2.13500000       4.30577000E-06  
2.13600000       3.94056000E-06  
2.13700000       3.53782000E-06  
2.13800000       3.16735000E-06  
2.13900000       2.87676000E-06  
2.14000000       2.62285000E-06  
2.14100000       2.39120000E-06  
2.14200000       2.10774000E-06  
2.14300000       1.88509000E-06  
2.14400000       1.67727000E-06  
2.14500000       1.65795000E-06  
2.14600000       1.57811000E-06  
2.14700000       1.43483000E-06  
2.14800000       1.22196000E-06  
2.14900000       1.07525000E-06  
2.15000000       1.05345000E-06  
2.15100000       9.60356000E-07  
2.15200000       8.20245000E-07  
2.15300000       7.71162000E-07  
2.15400000       7.35406000E-07  
2.15500000       6.93224000E-07  
2.15600000       6.27519000E-07  
2.15700000       5.40775000E-07  
2.15800000       5.32340000E-07  
2.15900000       5.18868000E-07  
2.16000000       4.93126000E-07  
2.16100000       4.72296000E-07  
2.16200000       4.33119000E-07  
2.16300000       3.90177000E-07  
2.16400000       3.88877000E-07  
2.16500000       3.42940000E-07  
2.16600000       3.17840000E-07  
2.16700000       3.08954000E-07  
2.16800000       2.97765000E-07  
2.16900000       2.73750000E-07  
2.17000000       2.39293000E-07  
2.17100000       2.19574000E-07  
2.17200000       2.13699000E-07  
2.17300000       2.05180000E-07  
2.17400000       1.89016000E-07  
2.17500000       1.92746000E-07  
2.17600000       1.95318000E-07  
2.17700000       1.73524000E-07  
2.17800000       1.58076000E-07  
2.17900000       1.43166000E-07  
2.18000000       1.25550000E-07  
2.18100000       1.32023000E-07  
2.18200000       1.24227000E-07  
2.18300000       1.19085000E-07  
2.18400000       1.22776000E-07  
2.18500000       1.22303000E-07  
2.18600000       1.17032000E-07  
2.18700000       1.01558000E-07  
2.18800000       9.82620000E-08  
2.18900000       9.34834000E-08  
2.19000000       8.52883000E-08  
2.19100000       8.84301000E-08  
2.19200000       7.92992000E-08  
2.19300000       7.50357000E-08  
2.19400000       7.91941000E-08  
2.19500000       8.42263000E-08  
2.19600000       9.08471000E-08  
2.19700000       8.35643000E-08  
2.19800000       7.52448000E-08  
2.19900000       8.37874000E-08  
2.20000000       6.56527000E-08  
2.20100000       8.02038000E-08  
2.20200000       7.38135000E-08  
2.20300000       7.11314000E-08  
2.20400000       8.71130000E-08  
2.20500000       8.48003000E-08  
2.20600000       8.99694000E-08  
2.20700000       8.56558000E-08  
2.20800000       7.48964000E-08  
2.20900000       7.48932000E-08  
2.21000000       7.35067000E-08  
2.21100000       7.39027000E-08  
2.21200000       7.47300000E-08  
2.21300000       7.25206000E-08  
2.21400000       6.24565000E-08  
2.21500000       5.68135000E-08  
2.21600000       6.17082000E-08  
2.21700000       5.19987000E-08  
2.21800000       4.86695000E-08  
2.21900000       5.28459000E-08  
2.22000000       5.42389000E-08  
2.22100000       7.13773000E-08  
2.22200000       6.49138000E-08  
2.22300000       5.56713000E-08  
2.22400000       5.97006000E-08  
2.22500000       6.36250000E-08  
2.22600000       5.78245000E-08  
2.22700000       5.77191000E-08  
2.22800000       6.71755000E-08  
2.22900000       5.34664000E-08  
2.23000000       6.57611000E-08  
2.23100000       5.62546000E-08  
2.23200000       5.36791000E-08  
2.23300000       5.26976000E-08  
2.23400000       5.22177000E-08  
2.23500000       6.29301000E-08  
2.23600000       5.54752000E-08  
2.23700000       5.32420000E-08  
2.23800000       5.53524000E-08  
2.23900000       6.35366000E-08  
2.24000000       4.61702000E-08  
2.24100000       6.25392000E-08  
2.24200000       6.51039000E-08  
2.24300000       6.85844000E-08  
2.24400000       6.49437000E-08  
2.24500000       5.47434000E-08  
2.24600000       5.74236000E-08  
2.24700000       5.88831000E-08  
2.24800000       6.24330000E-08  
2.24900000       6.89273000E-08  
2.25000000       5.57452000E-08  
2.25100000       6.20579000E-08  
2.25200000       6.65025000E-08  
2.25300000       5.17447000E-08  
2.25400000       6.98338000E-08  
2.25500000       6.35225000E-08  
2.25600000       4.84673000E-08  
2.25700000       6.02165000E-08  
2.25800000       7.63717000E-08  
2.25900000       6.89359000E-08  
2.26000000       8.12050000E-08  
2.26100000       6.55247000E-08  
2.26200000       5.29698000E-08  
2.26300000       6.58050000E-08  
2.26400000       6.76196000E-08  
2.26500000       3.89521000E-08  
2.26600000       5.55633000E-08  
2.26700000       5.92505000E-08  
2.26800000       4.33546000E-08  
2.26900000       5.38431000E-08  
2.27000000       5.56330000E-08  
2.27100000       4.94598000E-08  
2.27200000       5.46589000E-08  
2.27300000       4.95800000E-08  
2.27400000       4.40566000E-08  
2.27500000       5.11396000E-08  
2.27600000       3.92811000E-08  
2.27700000       3.86190000E-08  
2.27800000       3.92697000E-08  
2.27900000       3.93976000E-08  
2.28000000       3.30522000E-08  
2.28100000       3.17375000E-08  
2.28200000       4.08285000E-08  
2.28300000       3.23684000E-08  
2.28400000       2.45168000E-08  
2.28500000       2.89923000E-08  
2.28600000       1.99030000E-08  
2.28700000       2.56684000E-08  
2.28800000       2.44163000E-08  
2.28900000       1.32162000E-08  
2.29000000       2.24213000E-08  
2.29100000       1.62765000E-08  
2.29200000       1.91698000E-08  
2.29300000       1.00626000E-08  
2.29400000       8.60769000E-09  
2.29500000       1.79905000E-08  
2.29600000       1.63287000E-08  
2.29700000       7.82560000E-09  
2.29800000       1.21100000E-08  
2.29900000       7.85898000E-09  
2.30000000       1.05055000E-08  
2.30100000       0.00000000E+00  
2.30200000       0.00000000E+00  
2.30300000       1.09853000E-08  
2.30400000       1.11285000E-08  
2.30500000       0.00000000E+00  
2.30600000       0.00000000E+00  
2.30700000       8.78735000E-09  
2.30800000       0.00000000E+00  
2.30900000       0.00000000E+00  
2.31000000       1.05482000E-08  
2.31100000       0.00000000E+00  
2.31200000       0.00000000E+00  
2.31300000       0.00000000E+00  
2.31400000       0.00000000E+00  
2.31500000       0.00000000E+00  
2.31600000       0.00000000E+00  
2.31700000       0.00000000E+00  
2.31800000       0.00000000E+00  
2.31900000       0.00000000E+00  
2.32000000       0.00000000E+00  
2.32100000       7.57521000E-09  
2.32200000       0.00000000E+00  
2.32300000       0.00000000E+00  
2.32400000       0.00000000E+00  
2.32500000       0.00000000E+00  
2.32600000       0.00000000E+00  
2.32700000       0.00000000E+00  
2.32800000       0.00000000E+00  
2.32900000       0.00000000E+00  
2.33000000       0.00000000E+00  
2.33100000       0.00000000E+00  
2.33200000       0.00000000E+00  
2.33300000       0.00000000E+00  
2.33400000       0.00000000E+00  
2.33500000       0.00000000E+00  
2.33600000       0.00000000E+00  
2.33700000       0.00000000E+00  
2.33800000       0.00000000E+00  
2.33900000       0.00000000E+00  
2.34000000       0.00000000E+00  
2.34100000       0.00000000E+00  
2.34200000       0.00000000E+00  
2.34300000       0.00000000E+00  
2.34400000       0.00000000E+00  
2.34500000       0.00000000E+00  
2.34600000       0.00000000E+00  
2.34700000       0.00000000E+00  
2.34800000       0.00000000E+00  
2.34900000       0.00000000E+00  
2.35000000       0.00000000E+00  
2.35100000       0.00000000E+00  
2.35200000       0.00000000E+00  
2.35300000       0.00000000E+00  
2.35400000       0.00000000E+00  
2.35500000       0.00000000E+00  
2.35600000       0.00000000E+00  
2.35700000       0.00000000E+00  
2.35800000       0.00000000E+00  
2.35900000       0.00000000E+00  
2.36000000       8.49479000E-09  
2.36100000       0.00000000E+00  
2.36200000       0.00000000E+00  
2.36300000       0.00000000E+00  
2.36400000       0.00000000E+00  
2.36500000       0.00000000E+00  
2.36600000       0.00000000E+00  
2.36700000       7.92890000E-09  
2.36800000       0.00000000E+00  
2.36900000       0.00000000E+00  
2.37000000       0.00000000E+00  
2.37100000       0.00000000E+00  
2.37200000       0.00000000E+00  
2.37300000       0.00000000E+00  
2.37400000       0.00000000E+00  
2.37500000       1.09380000E-08  
2.37600000       8.85926000E-09  
2.37700000       0.00000000E+00  
2.37800000       1.33609000E-08  
2.37900000       9.68562000E-09  
2.38000000       9.68172000E-09  
2.38100000       0.00000000E+00  
2.38200000       8.78528000E-09  
2.38300000       0.00000000E+00  
2.38400000       8.63801000E-09  
2.38500000       7.76066000E-09  
2.38600000       7.82932000E-09  
2.38700000       2.62133000E-08  
2.38800000       1.18688000E-08  
2.38900000       0.00000000E+00  
2.39000000       0.00000000E+00  
2.39100000       0.00000000E+00  
2.39200000       0.00000000E+00  
2.39300000       1.69714000E-08  
2.39400000       0.00000000E+00  
2.39500000       0.00000000E+00  
2.39600000       7.14180000E-08  
2.39700000       1.46160000E-08  
2.39800000       2.00026000E-08  
2.39900000       0.00000000E+00  
2.40000000       2.51925000E-08  
2.40100000       0.00000000E+00  
2.40200000       0.00000000E+00  
2.40300000       8.40727000E-09  
2.40400000       9.27249000E-09  
2.40500000       3.67082000E-08  
2.40600000       2.06059000E-08  
2.40700000       2.44858000E-08  
2.40800000       1.58712000E-08  
2.40900000       2.93850000E-08  
2.41000000       1.88847000E-08  
2.41100000       0.00000000E+00  
2.41200000       4.09125000E-08  
2.41300000       3.35217000E-08  
2.41400000       1.95971000E-08  
2.41500000       8.41809000E-09  
2.41600000       1.31495000E-08  
2.41700000       5.18587000E-08  
2.41800000       2.14834000E-08  
2.41900000       1.64033000E-08  
2.42000000       0.00000000E+00  
2.42100000       2.11961000E-08  
2.42200000       0.00000000E+00  
2.42300000       4.24279000E-08  
2.42400000       3.41521000E-08  
2.42500000       2.71205000E-08  
2.42600000       2.71972000E-08  
2.42700000       3.52137000E-08  
2.42800000       2.85187000E-08  
2.42900000       5.68425000E-08  
2.43000000       5.28312000E-08  
2.43100000       4.03138000E-08  
2.43200000       0.00000000E+00  
2.43300000       8.44176000E-08  
2.43400000       1.67282000E-08  
2.43500000       4.74783000E-08  
2.43600000       9.88056000E-09  
2.43700000       2.14072000E-08  
2.43800000       2.46190000E-08  
2.43900000       0.00000000E+00  
2.44000000       5.71881000E-08  
2.44100000       1.91888000E-08  
2.44200000       3.11159000E-08  
2.44300000       4.95943000E-08  
2.44400000       1.93370000E-08  
2.44500000       9.61147000E-09  
2.44600000       2.53301000E-08  
2.44700000       2.73306000E-08  
2.44800000       2.73614000E-08  
2.44900000       1.32226000E-07  
2.45000000       8.00687000E-09  
2.45100000       8.54819000E-08  
2.45200000       1.17105000E-08  
2.45300000       2.75587000E-08  
2.45400000       6.68993000E-08  
2.45500000       0.00000000E+00  
2.45600000       6.11518000E-08  
2.45700000       1.31025000E-07  
2.45800000       7.72748000E-08  
2.45900000       5.46917000E-08  
2.46000000       4.84185000E-08  
2.46100000       1.05380000E-07  
2.46200000       3.49667000E-08  
2.46300000       4.28586000E-08  
2.46400000       0.00000000E+00  
2.46500000       6.49407000E-08  
2.46600000       9.65008000E-08  
2.46700000       1.22258000E-07  
2.46800000       3.55414000E-08  
2.46900000       1.54764000E-07  
2.47000000       5.58946000E-08  
2.47100000       1.98857000E-07  
2.47200000       4.53735000E-08  
2.47300000       5.48635000E-08  
2.47400000       7.74319000E-08  
2.47500000       2.85632000E-07  
2.47600000       1.59347000E-07  
2.47700000       9.45751000E-08  
2.47800000       4.89170000E-08  
2.47900000       4.42711000E-07  
2.48000000       2.19214000E-07  
2.48100000       2.74263000E-07  
2.48200000       2.45233000E-07  
2.48300000       1.56762000E-07  
2.48400000       4.45885000E-07  
2.48500000       5.12373000E-08  
2.48600000       5.25385000E-07  
2.48700000       5.47990000E-08  
2.48800000       3.17506000E-08  
2.48900000       2.01498000E-07  
2.49000000       2.31336000E-07  
2.49100000       2.20920000E-07  
2.49200000       2.32780000E-07  
2.49300000       2.58528000E-08  
2.49400000       5.25126000E-07  
2.49500000       6.61417000E-07  
2.49600000       1.30949000E-06  
2.49700000       6.92692000E-07  
2.49800000       2.10816000E-06  
2.49900000       7.34923000E-08  
2.50000000       1.70981000E-06  
2.50100000       1.57562000E-06  
2.50200000       1.39115000E-06  
2.50300000       2.15694000E-06  
2.50400000       1.65812000E-06  
2.50500000       1.82908000E-06  
2.50600000       2.45766000E-06  
2.50700000       2.21110000E-06  
2.50800000       1.83106000E-06  
2.50900000       3.12634000E-06  
2.51000000       2.46932000E-06  
2.51100000       2.68699000E-06  
2.51200000       2.07435000E-06  
2.51300000       2.77462000E-06  
2.51400000       2.95568000E-06  
2.51500000       2.82634000E-06  
2.51600000       3.29016000E-06  
2.51700000       2.25749000E-06  
2.51800000       1.97491000E-06  
2.51900000       1.69490000E-06  
2.52000000       3.76927000E-06  
2.52100000       3.42794000E-06  
2.52200000       3.50484000E-06  
2.52300000       3.49152000E-06  
2.52400000       4.08023000E-06  
2.52500000       5.44482000E-06  
2.52600000       3.95817000E-06  
2.52700000       4.26841000E-06  
2.52800000       5.27567000E-06  
2.52900000       5.14274000E-06  
2.53000000       5.39725000E-06  
2.53100000       4.18969000E-06  
2.53200000       2.49818000E-06  
2.53300000       3.79296000E-06  
2.53400000       5.65146000E-06  
2.53500000       3.78358000E-06  
2.53600000       4.62749000E-06  
2.53700000       5.06754000E-06  
2.53800000       2.81511000E-06  
2.53900000       3.22341000E-06  
2.54000000       6.60873000E-06  
2.54100000       5.00349000E-06  
2.54200000       5.48785000E-06  
2.54300000       4.71299000E-06  
2.54400000       4.05353000E-06  
2.54500000       3.39557000E-06  
2.54600000       2.31189000E-06  
2.54700000       4.94360000E-06  
2.54800000       4.59039000E-06  
2.54900000       3.98779000E-06  
2.55000000       4.91420000E-06  
2.55100000       5.90147000E-06  
2.55200000       7.08619000E-06  
2.55300000       5.58643000E-06  
2.55400000       7.23859000E-06  
2.55500000       1.04542000E-05  
2.55600000       1.09648000E-05  
2.55700000       6.90292000E-06  
2.55800000       2.52677000E-06  
2.55900000       8.23752000E-06  
2.56000000       1.14624000E-05  
2.56100000       4.93415000E-07  
2.56200000       9.95747000E-06  
2.56300000       5.79639000E-06  
2.56400000       9.21306000E-06  
2.56500000       5.02379000E-06  
2.56600000       1.42908000E-05  
2.56700000       9.05837000E-06  
2.56800000       1.19192000E-05  
2.56900000       1.67746000E-05  
2.57000000       1.71297000E-05  
2.57100000       0.00000000E+00  
2.57200000       9.56645000E-06  
2.57300000       2.10007000E-05  
2.57400000       7.83667000E-06  
2.57500000       1.59450000E-05  
2.57600000       1.87977000E-05  
2.57700000       1.60004000E-05  
2.57800000       1.86835000E-05  
2.57900000       2.40932000E-05  
2.58000000       1.50256000E-05  
2.58100000       2.01632000E-06  
2.58200000       2.22786000E-05  
2.58300000       3.03387000E-05  
2.58400000       2.64845000E-05  
2.58500000       1.66734000E-05  
2.58600000       9.32434000E-06  
2.58700000       1.17528000E-05  
2.58800000       1.27030000E-05  
2.58900000       1.31219000E-05  
2.59000000       1.12051000E-05  
2.59100000       9.24432000E-06  
2.59200000       5.18081000E-06  
2.59300000       1.15451000E-05  
2.59400000       2.03041000E-05  
2.59500000       1.93465000E-05  
2.59600000       2.62592000E-06  
2.59700000       1.46663000E-05  
2.59800000       1.69438000E-05  
2.59900000       5.31358000E-05  
2.60000000       1.52492000E-05  
2.60100000       1.53586000E-05  
2.60200000       1.54663000E-05  
2.60300000       1.55741000E-05  
2.60400000       1.56803000E-05  
2.60500000       1.57880000E-05  
2.60600000       1.58956000E-05  
2.60700000       1.60032000E-05  
2.60800000       1.61126000E-05  
2.60900000       1.62203000E-05  
2.61000000       1.63279000E-05  
2.61100000       1.64354000E-05  
2.61200000       1.65448000E-05  
2.61300000       1.66523000E-05  
2.61400000       1.67599000E-05  
2.61500000       1.68674000E-05  
2.61600000       1.69767000E-05  
2.61700000       1.70842000E-05  
2.61800000       1.71917000E-05  
2.61900000       1.72992000E-05  
2.62000000       1.74085000E-05  
2.62100000       1.75147000E-05  
2.62200000       1.76208000E-05  
2.62300000       1.77269000E-05  
2.62400000       1.78330000E-05  
2.62500000       1.79409000E-05  
2.62600000       1.80469000E-05  
2.62700000       1.81530000E-05  
2.62800000       1.82590000E-05  
2.62900000       1.83648000E-05  
2.63000000       1.84728000E-05  
2.63100000       1.85783000E-05  
2.63200000       1.86838000E-05  
2.63300000       1.87892000E-05  
2.63400000       1.88946000E-05  
2.63500000       1.90020000E-05  
2.63600000       1.91074000E-05  
2.63700000       1.92127000E-05  
2.63800000       1.93180000E-05  
2.63900000       1.94232000E-05  
2.64000000       1.95305000E-05  
2.64100000       1.96359000E-05  
2.64200000       1.97411000E-05  
2.64300000       1.98465000E-05  
2.64400000       1.99517000E-05  
2.64500000       2.00569000E-05  
2.64600000       2.01641000E-05  
2.64700000       2.02693000E-05  
2.64800000       2.03744000E-05  
2.64900000       2.04795000E-05  
2.65000000       2.05846000E-05  
2.65100000       2.06892000E-05  
2.65200000       2.07960000E-05  
2.65300000       2.09005000E-05  
2.65400000       2.10050000E-05  
2.65500000       2.11095000E-05  
2.65600000       2.12139000E-05  
2.65700000       2.13183000E-05  
2.65800000       2.14226000E-05  
2.65900000       2.15292000E-05  
2.66000000       2.16336000E-05  
2.66100000       2.17367000E-05  
2.66200000       2.18398000E-05  
2.66300000       2.19428000E-05  
2.66400000       2.20458000E-05  
2.66500000       2.21488000E-05  
2.66600000       2.22541000E-05  
2.66700000       2.23570000E-05  
2.66800000       2.24598000E-05  
2.66900000       2.25626000E-05  
2.67000000       2.26653000E-05  
2.67100000       2.27626000E-05  
2.67200000       2.28574000E-05  
2.67300000       2.29545000E-05  
2.67400000       2.30515000E-05  
2.67500000       2.31507000E-05  
2.67600000       2.32475000E-05  
2.67700000       2.33394000E-05  
2.67800000       2.34359000E-05  
2.67900000       2.35324000E-05  
2.68000000       2.36287000E-05  
2.68100000       2.37251000E-05  
2.68200000       2.38214000E-05  
2.68300000       2.39178000E-05  
2.68400000       2.40165000E-05  
2.68500000       2.41126000E-05  
2.68600000       2.42086000E-05  
2.68700000       2.43044000E-05  
2.68800000       2.44002000E-05  
2.68900000       2.44958000E-05  
2.69000000       2.45840000E-05  
2.69100000       2.46770000E-05  
2.69200000       2.47700000E-05  
2.69300000       2.48628000E-05  
2.69400000       2.49555000E-05  
2.69500000       2.50508000E-05  
2.69600000       2.51433000E-05  
2.69700000       2.52305000E-05  
2.69800000       2.53227000E-05  
2.69900000       2.54148000E-05  
2.70000000       2.55043000E-05  
2.70100000       2.55548000E-05  
2.70200000       2.56024000E-05  
2.70300000       2.56495000E-05  
2.70400000       2.56959000E-05  
2.70500000       2.57420000E-05  
2.70600000       2.57875000E-05  
2.70700000       2.58325000E-05  
2.70800000       2.58798000E-05  
2.70900000       2.59238000E-05  
2.71000000       2.59674000E-05  
2.71100000       2.59817000E-05  
2.71200000       2.59954000E-05  
2.71300000       2.60083000E-05  
2.71400000       2.60205000E-05  
2.71500000       2.60320000E-05  
2.71600000       2.60428000E-05  
2.71700000       2.60554000E-05  
2.71800000       2.60648000E-05  
2.71900000       2.60735000E-05  
2.72000000       2.60813000E-05  
2.72100000       2.61121000E-05  
2.72200000       2.61423000E-05  
2.72300000       2.61720000E-05  
2.72400000       2.62039000E-05  
2.72500000       2.62325000E-05  
2.72600000       2.62605000E-05  
2.72700000       2.62880000E-05  
2.72800000       2.63150000E-05  
2.72900000       2.63415000E-05  
2.73000000       2.63674000E-05  
2.73100000       2.64672000E-05  
2.73200000       2.65615000E-05  
2.73300000       2.66612000E-05  
2.73400000       2.67609000E-05  
2.73500000       2.68607000E-05  
2.73600000       2.69605000E-05  
2.73700000       2.70603000E-05  
2.73800000       2.71601000E-05  
2.73900000       2.72599000E-05  
2.74000000       2.73542000E-05  
2.74100000       2.74641000E-05  
2.74200000       2.75741000E-05  
2.74300000       2.76871000E-05  
2.74400000       2.77972000E-05  
2.74500000       2.79019000E-05  
2.74600000       2.80122000E-05  
2.74700000       2.81198000E-05  
2.74800000       2.82302000E-05  
2.74900000       2.83351000E-05  
2.75000000       2.84457000E-05  
2.75100000       2.85556000E-05  
2.75200000       2.86598000E-05  
2.75300000       2.87699000E-05  
2.75400000       2.88800000E-05  
2.75500000       2.89814000E-05  
2.75600000       2.90917000E-05  
2.75700000       2.92021000E-05  
2.75800000       2.93065000E-05  
2.75900000       2.94170000E-05  
2.76000000       2.95186000E-05  
2.76100000       2.96312000E-05  
2.76200000       2.97378000E-05  
2.76300000       2.98507000E-05  
2.76400000       2.99543000E-05  
2.76500000       3.00673000E-05  
2.76600000       3.01742000E-05  
2.76700000       3.02842000E-05  
2.76800000       3.09308000E-05  
2.76900000       3.37463000E-05  
2.77000000       3.65527000E-05  
2.77100000       3.75208000E-05  
2.77200000       3.66564000E-05  
2.77300000       3.57807000E-05  
2.77400000       2.95775000E-05  
2.77500000       2.27752000E-05  
2.77600000       1.62936000E-05  
2.77700000       1.11068000E-05  
2.77800000       5.91848000E-06  
2.77900000       1.37098000E-05  
2.78000000       3.01609000E-05  
2.78100000       4.66457000E-05  
2.78200000       4.39442000E-05  
2.78300000       3.90940000E-05  
2.78400000       3.47583000E-05  
2.78500000       3.16238000E-05  
2.78600000       2.84846000E-05  
2.78700000       2.76507000E-05  
2.78800000       2.83514000E-05  
2.78900000       2.90531000E-05  
2.79000000       3.91270000E-05  
2.79100000       4.92131000E-05  
2.79200000       5.00243000E-05  
2.79300000       2.91937000E-05  
2.79400000       8.32481000E-06  
2.79500000       6.73805000E-06  
2.79600000       1.34385000E-05  
2.79700000       2.01453000E-05  
2.79800000       2.56074000E-05  
2.79900000       3.10800000E-05  
2.80000000       3.44957000E-05  
2.80100000       3.48180000E-05  
2.80200000       3.51333000E-05  
2.80300000       3.21687000E-05  
2.80400000       2.77881000E-05  
2.80500000       2.34106000E-05  
2.80600000       2.42764000E-05  
2.80700000       2.51471000E-05  
2.80800000       2.43951000E-05  
2.80900000       2.12126000E-05  
2.81000000       1.80334000E-05  
2.81100000       1.95896000E-05  
2.81200000       2.31780000E-05  
2.81300000       2.58418000E-05  
2.81400000       2.01646000E-05  
2.81500000       1.44852000E-05  
2.81600000       1.30395000E-05  
2.81700000       1.79461000E-05  
2.81800000       2.28559000E-05  
2.81900000       2.01054000E-05  
2.82000000       1.54341000E-05  
2.82100000       1.14431000E-05  
2.82200000       1.36489000E-05  
2.82300000       1.58495000E-05  
2.82400000       1.79171000E-05  
2.82500000       1.98509000E-05  
2.82600000       2.17790000E-05  
2.82700000       2.54205000E-05  
2.82800000       2.94765000E-05  
2.82900000       3.26653000E-05  
2.83000000       3.23950000E-05  
2.83100000       3.21287000E-05  
2.83200000       3.59200000E-05  
2.83300000       4.37657000E-05  
2.83400000       5.15853000E-05  
2.83500000       4.65339000E-05  
2.83600000       4.00587000E-05  
2.83700000       3.42101000E-05  
2.83800000       3.08296000E-05  
2.83900000       2.74593000E-05  
2.84000000       2.67027000E-05  
2.84100000       2.85388000E-05  
2.84200000       3.03795000E-05  
2.84300000       3.82704000E-05  
2.84400000       4.68091000E-05  
2.84500000       5.20568000E-05  
2.84600000       4.41894000E-05  
2.84700000       3.63232000E-05  
2.84800000       3.37902000E-05  
2.84900000       3.47885000E-05  
2.85000000       3.57993000E-05  
2.85100000       2.68926000E-05  
2.85200000       1.69114000E-05  
2.85300000       1.16129000E-05  
2.85400000       1.72093000E-05  
2.85500000       2.27881000E-05  
2.85600000       2.46795000E-05  
2.85700000       2.41098000E-05  
2.85800000       2.35465000E-05  
2.85900000       1.75281000E-05  
2.86000000       1.15185000E-05  
2.86100000       9.98234000E-06  
2.86200000       1.88338000E-05  
2.86300000       2.76627000E-05  
2.86400000       2.89197000E-05  
2.86500000       2.69244000E-05  
2.86600000       2.49335000E-05  
2.86700000       3.43481000E-05  
2.86800000       4.37297000E-05  
2.86900000       4.89362000E-05  
2.87000000       4.79081000E-05  
2.87100000       4.68718000E-05  
2.87200000       3.86212000E-05  
2.87300000       2.72966000E-05  
2.87400000       1.82620000E-05  
2.87500000       2.96385000E-05  
2.87600000       4.09894000E-05  
2.87700000       4.56047000E-05  
2.87800000       4.01238000E-05  
2.87900000       3.46598000E-05  
2.88000000       3.24109000E-05  
2.88100000       3.15506000E-05  
2.88200000       3.11523000E-05  
2.88300000       3.49494000E-05  
2.88400000       3.87399000E-05  
2.88500000       4.02445000E-05  
2.88600000       3.83061000E-05  
2.88700000       3.63753000E-05  
2.88800000       2.82180000E-05  
2.88900000       1.85265000E-05  
2.89000000       9.66922000E-06  
2.89100000       8.23204000E-06  
2.89200000       6.79762000E-06  
2.89300000       1.37688000E-05  
2.89400000       2.91320000E-05  
2.89500000       4.44634000E-05  
2.89600000       5.11804000E-05  
2.89700000       5.57358000E-05  
2.89800000       5.87710000E-05  
2.89900000       5.57574000E-05  
2.90000000       5.27312000E-05  
2.90100000       4.87440000E-05  
2.90200000       4.37916000E-05  
2.90300000       3.88434000E-05  
2.90400000       3.53793000E-05  
2.90500000       3.20846000E-05  
2.90600000       2.93469000E-05  
2.90700000       2.88291000E-05  
2.90800000       2.83067000E-05  
2.90900000       3.33162000E-05  
2.91000000       4.19937000E-05  
2.91100000       5.06504000E-05  
2.91200000       5.51001000E-05  
2.91300000       5.90763000E-05  
2.91400000       6.03696000E-05  
2.91500000       5.11055000E-05  
2.91600000       4.18535000E-05  
2.91700000       3.38355000E-05  
2.91800000       2.66423000E-05  
2.91900000       1.94559000E-05  
2.92000000       2.64155000E-05  
2.92100000       3.49292000E-05  
2.92200000       3.99240000E-05  
2.92300000       3.67292000E-05  
2.92400000       3.35380000E-05  
2.92500000       3.32948000E-05  
2.92600000       3.50168000E-05  
2.92700000       3.67315000E-05  
2.92800000       3.31245000E-05  
2.92900000       2.95318000E-05  
2.93000000       2.62885000E-05  
2.93100000       2.38599000E-05  
2.93200000       2.14316000E-05  
2.93300000       2.06375000E-05  
2.93400000       2.05380000E-05  
2.93500000       2.04408000E-05  
2.93600000       2.13502000E-05  
2.93700000       2.22503000E-05  
2.93800000       2.31280000E-05  
2.93900000       2.39569000E-05  
2.94000000       2.47869000E-05  
2.94100000       2.37303000E-05  
2.94200000       2.18720000E-05  
2.94300000       1.99199000E-05  
2.94400000       1.71666000E-05  
2.94500000       1.44151000E-05  
2.94600000       1.43795000E-05  
2.94700000       1.84047000E-05  
2.94800000       2.24204000E-05  
2.94900000       2.26868000E-05  
2.95000000       2.13456000E-05  
2.95100000       2.08943000E-05  
2.95200000       2.83880000E-05  
2.95300000       3.58682000E-05  
2.95400000       3.84165000E-05  
2.95500000       3.35768000E-05  
2.95600000       2.87444000E-05  
2.95700000       2.31555000E-05  
2.95800000       1.73815000E-05  
2.95900000       1.28892000E-05  
2.96000000       1.97969000E-05  
2.96100000       2.66909000E-05  
2.96200000       2.95516000E-05  
2.96300000       2.83925000E-05  
2.96400000       2.72384000E-05  
2.96500000       2.42398000E-05  
2.96600000       2.07823000E-05  
2.96700000       1.91903000E-05  
2.96800000       2.49980000E-05  
2.96900000       3.08066000E-05  
2.97000000       3.86542000E-05  
2.97100000       4.85462000E-05  
2.97200000       5.84177000E-05  
2.97300000       5.47956000E-05  
2.97400000       4.96698000E-05  
2.97500000       4.46725000E-05  
2.97600000       4.00716000E-05  
2.97700000       3.54744000E-05  
2.97800000       2.87282000E-05  
2.97900000       2.05561000E-05  
2.98000000       1.23928000E-05  
2.98100000       1.61541000E-05  
2.98200000       2.12415000E-05  
2.98300000       2.66237000E-05  
2.98400000       3.32201000E-05  
2.98500000       3.98086000E-05  
2.98600000       3.84049000E-05  
2.98700000       3.16796000E-05  
2.98800000       2.49579000E-05  
2.98900000       2.21121000E-05  
2.99000000       1.97005000E-05  
2.99100000       1.88993000E-05  
2.99200000       2.18543000E-05  
2.99300000       2.48010000E-05  
2.99400000       2.73261000E-05  
2.99500000       2.95634000E-05  
2.99600000       3.18028000E-05  
2.99700000       3.60422000E-05  
2.99800000       4.02854000E-05  
2.99900000       4.16745000E-05  
3.00000000       3.64080000E-05  
3.00100000       3.11575000E-05  
3.00200000       2.65206000E-05  
3.00300000       2.21468000E-05  
3.00400000       1.77821000E-05  
3.00500000       1.95012000E-05  
3.00600000       2.12168000E-05  
3.00700000       2.47225000E-05  
3.00800000       3.09075000E-05  
3.00900000       3.70894000E-05  
3.01000000       4.25038000E-05  
3.01100000       4.75814000E-05  
3.01200000       5.18884000E-05  
3.01300000       4.92327000E-05  
3.01400000       4.65893000E-05  
3.01500000       4.33442000E-05  
3.01600000       3.92029000E-05  
3.01700000       3.50590000E-05  
3.01800000       3.27169000E-05  
3.01900000       3.08289000E-05  
3.02000000       2.96478000E-05  
3.02100000       3.48318000E-05  
3.02200000       4.00177000E-05  
3.02300000       4.20860000E-05  
3.02400000       3.94938000E-05  
3.02500000       3.69064000E-05  
3.02600000       3.32650000E-05  
3.02700000       2.93712000E-05  
3.02800000       2.63788000E-05  
3.02900000       3.15016000E-05  
3.03000000       3.66283000E-05  
3.03100000       3.92075000E-05  
3.03200000       3.92396000E-05  
3.03300000       3.92676000E-05  
3.03400000       3.83639000E-05  
3.03500000       3.72210000E-05  
3.03600000       3.59808000E-05  
3.03700000       3.43452000E-05  
3.03800000       3.27134000E-05  
3.03900000       3.19087000E-05  
3.04000000       3.19236000E-05  
3.04100000       3.19429000E-05  
3.04200000       3.26455000E-05  
3.04300000       3.34203000E-05  
3.04400000       3.47848000E-05  
3.04500000       3.85417000E-05  
3.04600000       4.22855000E-05  
3.04700000       4.30639000E-05  
3.04800000       4.18510000E-05  
3.04900000       4.06517000E-05  
3.05000000       4.07089000E-05  
3.05100000       4.09236000E-05  
3.05200000       3.85865000E-05  
3.05300000       3.03399000E-05  
3.05400000       2.20948000E-05  
3.05500000       1.70955000E-05  
3.05600000       1.42660000E-05  
3.05700000       1.14394000E-05  
3.05800000       1.94906000E-05  
3.05900000       2.87553000E-05  
3.06000000       3.50286000E-05  
3.06100000       3.43334000E-05  
3.06200000       3.36345000E-05  
3.06300000       3.27918000E-05  
3.06400000       3.18475000E-05  
3.06500000       3.09025000E-05  
3.06600000       3.20772000E-05  
3.06700000       3.32493000E-05  
3.06800000       3.51628000E-05  
3.06900000       3.87673000E-05  
3.07000000       4.23780000E-05  
3.07100000       4.38626000E-05  
3.07200000       4.44509000E-05  
3.07300000       4.50255000E-05  
3.07400000       4.69630000E-05  
3.07500000       4.88874000E-05  
3.07600000       4.95164000E-05  
3.07700000       4.81652000E-05  
3.07800000       4.68179000E-05  
3.07900000       4.91231000E-05  
3.08000000       5.30040000E-05  
3.08100000       5.68526000E-05  
3.08200000       6.02311000E-05  
3.08300000       6.36250000E-05  
3.08400000       6.46528000E-05  
3.08500000       6.21151000E-05  
3.08600000       5.95742000E-05  
3.08700000       5.35811000E-05  
3.08800000       4.67242000E-05  
3.08900000       4.06926000E-05  
3.09000000       4.21338000E-05  
3.09100000       4.35765000E-05  
3.09200000       4.71407000E-05  
3.09300000       5.38870000E-05  
3.09400000       6.06540000E-05  
3.09500000       6.61999000E-05  
3.09600000       7.14551000E-05  
3.09700000       7.58089000E-05  
3.09800000       7.18216000E-05  
3.09900000       6.78240000E-05  
3.10000000       6.39717000E-05  
3.10100000       6.02130000E-05  
3.10200000       5.64575000E-05  
3.10300000       5.63694000E-05  
3.10400000       5.72201000E-05  
3.10500000       5.81598000E-05  
3.10600000       5.94699000E-05  
3.10700000       6.07947000E-05  
3.10800000       5.89905000E-05  
3.10900000       5.40830000E-05  
3.11000000       4.91681000E-05  
3.11100000       5.07185000E-05  
3.11200000       5.29972000E-05  
3.11300000       5.62417000E-05  
3.11400000       6.33931000E-05  
3.11500000       7.05612000E-05  
3.11600000       7.20989000E-05  
3.11700000       6.98966000E-05  
3.11800000       6.76758000E-05  
3.11900000       6.66248000E-05  
3.12000000       6.57304000E-05  
3.12100000       6.31821000E-05  
3.12200000       5.68507000E-05  
3.12300000       5.04958000E-05  
3.12400000       5.32616000E-05  
3.12500000       6.21319000E-05  
3.12600000       7.09932000E-05  
3.12700000       7.62650000E-05  
3.12800000       8.15534000E-05  
3.12900000       8.24300000E-05  
3.13000000       7.30527000E-05  
3.13100000       6.36694000E-05  
3.13200000       5.99436000E-05  
3.13300000       5.99928000E-05  
3.13400000       6.00610000E-05  
3.13500000       5.87816000E-05  
3.13600000       5.75058000E-05  
3.13700000       5.76606000E-05  
3.13800000       6.11557000E-05  
3.13900000       6.46642000E-05  
3.14000000       7.30823000E-05  
3.14100000       8.36320000E-05  
3.14200000       9.41948000E-05  
3.14300000       9.16883000E-05  
3.14400000       8.91764000E-05  
3.14500000       8.47893000E-05  
3.14600000       7.75741000E-05  
3.14700000       7.03500000E-05  
3.14800000       7.11474000E-05  
3.14900000       7.54033000E-05  
3.15000000       7.94696000E-05  
3.15100000       8.18281000E-05  
3.15200000       8.41827000E-05  
3.15300000       8.57680000E-05  
3.15400000       8.61481000E-05  
3.15500000       8.65378000E-05  
3.15600000       8.54859000E-05  
3.15700000       8.40588000E-05  
3.15800000       8.27119000E-05  
3.15900000       8.21952000E-05  
3.16000000       8.16689000E-05  
3.16100000       7.82985000E-05  
3.16200000       7.20565000E-05  
3.16300000       6.58080000E-05  
3.16400000       6.86164000E-05  
3.16500000       7.37138000E-05  
3.16600000       7.88188000E-05  
3.16700000       8.40536000E-05  
3.16800000       8.92885000E-05  
3.16900000       8.74834000E-05  
3.17000000       7.85975000E-05  
3.17100000       6.97043000E-05  
3.17200000       6.71188000E-05  
3.17300000       6.60995000E-05  
3.17400000       6.67144000E-05  
3.17500000       7.37899000E-05  
3.17600000       8.08805000E-05  
3.17700000       8.48410000E-05  
3.17800000       8.56291000E-05  
3.17900000       8.64445000E-05  
3.18000000       8.53791000E-05  
3.18100000       8.40738000E-05  
3.18200000       8.16236000E-05  
3.18300000       7.45142000E-05  
3.18400000       6.73861000E-05  
3.18500000       6.73229000E-05  
3.18600000       7.19614000E-05  
3.18700000       7.66215000E-05  
3.18800000       8.18475000E-05  
3.18900000       8.71643000E-05  
3.19000000       9.16679000E-05  
3.19100000       9.43110000E-05  
3.19200000       9.69487000E-05  
3.19300000       9.87795000E-05  
3.19400000       1.00039000E-04  
3.19500000       1.01300000E-04  
3.19600000       1.02288000E-04  
3.19700000       1.03297000E-04  
3.19800000       1.03332000E-04  
3.19900000       1.01114000E-04  
3.20000000       9.88912000E-05  
3.20100000       9.81547000E-05  
3.20200000       9.84393000E-05  
3.20300000       9.87352000E-05  
3.20400000       9.27969000E-05  
3.20500000       8.68423000E-05  
3.20600000       8.04092000E-05  
3.20700000       7.28418000E-05  
3.20800000       6.52742000E-05  
3.20900000       6.59950000E-05  
3.21000000       7.02786000E-05  
3.21100000       7.45722000E-05  
3.21200000       7.27317000E-05  
3.21300000       7.08965000E-05  
3.21400000       7.07935000E-05  
3.21500000       7.32867000E-05  
3.21600000       7.57826000E-05  
3.21700000       7.33178000E-05  
3.21800000       6.86983000E-05  
3.21900000       6.36372000E-05  
3.22000000       5.45122000E-05  
3.22100000       4.53693000E-05  
3.22200000       4.04286000E-05  
3.22300000       4.17923000E-05  
3.22400000       4.31438000E-05  
3.22500000       5.09741000E-05  
3.22600000       6.04134000E-05  
3.22700000       6.89130000E-05  
3.22800000       6.88115000E-05  
3.22900000       6.87240000E-05  
3.23000000       6.74139000E-05  
3.23100000       6.48993000E-05  
3.23200000       6.23954000E-05  
3.23300000       6.53084000E-05  
3.23400000       6.95797000E-05  
3.23500000       7.35281000E-05  
3.23600000       7.43182000E-05  
3.23700000       7.51085000E-05  
3.23800000       7.51024000E-05  
3.23900000       7.42917000E-05  
3.24000000       7.34883000E-05  
3.24100000       7.29944000E-05  
3.24200000       7.25589000E-05  
3.24300000       7.17397000E-05  
3.24400000       6.93468000E-05  
3.24500000       6.69458000E-05  
3.24600000       6.44597000E-05  
3.24700000       6.18827000E-05  
3.24800000       5.93042000E-05  
3.24900000       5.61870000E-05  
3.25000000       5.29984000E-05  
3.25100000       5.15264000E-05  
3.25200000       5.68943000E-05  
3.25300000       6.22577000E-05  
3.25400000       6.43858000E-05  
3.25500000       6.43531000E-05  
3.25600000       6.43075000E-05  
3.25700000       5.97982000E-05  
3.25800000       5.47880000E-05  
3.25900000       5.34487000E-05  
3.26000000       6.06843000E-05  
3.26100000       6.79339000E-05  
3.26200000       7.10267000E-05  
3.26300000       7.13312000E-05  
3.26400000       7.16430000E-05  
3.26500000       7.42988000E-05  
3.26600000       7.69399000E-05  
3.26700000       8.03440000E-05  
3.26800000       8.54846000E-05  
3.26900000       9.06185000E-05  
3.27000000       8.63488000E-05  
3.27100000       7.80229000E-05  
3.27200000       6.97009000E-05  
3.27300000       6.76864000E-05  
3.27400000       6.56853000E-05  
3.27500000       6.60241000E-05  
3.27600000       7.18604000E-05  
3.27700000       7.76908000E-05  
3.27800000       7.53581000E-05  
3.27900000       6.95012000E-05  
3.28000000       6.36501000E-05  
3.28100000       6.08667000E-05  
3.28200000       5.80947000E-05  
3.28300000       5.54910000E-05  
3.28400000       5.31343000E-05  
3.28500000       5.07873000E-05  
3.28600000       4.80831000E-05  
3.28700000       4.52375000E-05  
3.28800000       4.30078000E-05  
3.28900000       4.62339000E-05  
3.29000000       4.94553000E-05  
3.29100000       5.34511000E-05  
3.29200000       5.85765000E-05  
3.29300000       6.36948000E-05  
3.29400000       6.48978000E-05  
3.29500000       6.51030000E-05  
3.29600000       6.51124000E-05  
3.29700000       6.34403000E-05  
3.29800000       6.17477000E-05  
3.29900000       6.23206000E-05  
3.30000000       6.51465000E-05  
3.30100000       6.79537000E-05  
3.30200000       7.20843000E-05  
3.30300000       7.65190000E-05  
3.30400000       8.02139000E-05  
3.30500000       8.07862000E-05  
3.30600000       8.13833000E-05  
3.30700000       7.77937000E-05  
3.30800000       7.00405000E-05  
3.30900000       6.22898000E-05  
3.31000000       6.07500000E-05  
3.31100000       6.07575000E-05  
3.31200000       6.10459000E-05  
3.31300000       6.23965000E-05  
3.31400000       6.37530000E-05  
3.31500000       6.44292000E-05  
3.31600000       6.44312000E-05  
3.31700000       6.44396000E-05  
3.31800000       6.56503000E-05  
3.31900000       6.69804000E-05  
3.32000000       6.67533000E-05  
3.32100000       6.01872000E-05  
3.32200000       5.36365000E-05  
3.32300000       5.10315000E-05  
3.32400000       5.10506000E-05  
3.32500000       5.10699000E-05  
3.32600000       5.21740000E-05  
3.32700000       5.33874000E-05  
3.32800000       5.26052000E-05  
3.32900000       4.71905000E-05  
3.33000000       4.17809000E-05  
3.33100000       3.75347000E-05  
3.33200000       3.40589000E-05  
3.33300000       3.05880000E-05  
3.33400000       2.97999000E-05  
3.33500000       2.90029000E-05  
3.33600000       3.14133000E-05  
3.33700000       4.12862000E-05  
3.33800000       5.11729000E-05  
3.33900000       5.41742000E-05  
3.34000000       5.42249000E-05  
3.34100000       5.42815000E-05  
3.34200000       5.48186000E-05  
3.34300000       5.53554000E-05  
3.34400000       5.82734000E-05  
3.34500000       6.66954000E-05  
3.34600000       7.51216000E-05  
3.34700000       7.88068000E-05  
3.34800000       8.04506000E-05  
3.34900000       8.21014000E-05  
3.35000000       7.23699000E-05  
3.35100000       6.26517000E-05  
3.35200000       5.65470000E-05  
3.35300000       5.59027000E-05  
3.35400000       5.52525000E-05  
3.35500000       5.80341000E-05  
3.35600000       6.22934000E-05  
3.35700000       6.58212000E-05  
3.35800000       6.27672000E-05  
3.35900000       5.97330000E-05  
3.36000000       5.91047000E-05  
3.36100000       6.21054000E-05  
3.36200000       6.50978000E-05  
3.36300000       6.98580000E-05  
3.36400000       7.50587000E-05  
3.36500000       7.99301000E-05  
3.36600000       8.18598000E-05  
3.36700000       8.37799000E-05  
3.36800000       8.16511000E-05  
3.36900000       7.54876000E-05  
3.37000000       6.93008000E-05  
3.37100000       6.56710000E-05  
3.37200000       6.26907000E-05  
3.37300000       5.95523000E-05  
3.37400000       5.57772000E-05  
3.37500000       5.20039000E-05  
3.37600000       4.93297000E-05  
3.37700000       4.77646000E-05  
3.37800000       4.62002000E-05  
3.37900000       4.41965000E-05  
3.38000000       4.20914000E-05  
3.38100000       4.12538000E-05  
3.38200000       4.55255000E-05  
3.38300000       4.97999000E-05  
3.38400000       5.37866000E-05  
3.38500000       5.74837000E-05  
3.38600000       6.11794000E-05  
3.38700000       5.98258000E-05  
3.38800000       5.79233000E-05  
3.38900000       5.68519000E-05  
3.39000000       5.91485000E-05  
3.39100000       6.14497000E-05  
3.39200000       6.63161000E-05  
3.39300000       7.28900000E-05  
3.39400000       7.94631000E-05  
3.39500000       7.31904000E-05  
3.39600000       6.54805000E-05  
3.39700000       5.87955000E-05  
3.39800000       5.45183000E-05  
3.39900000       5.02429000E-05  
3.40000000       5.23388000E-05  
3.40100000       5.86996000E-05  
3.40200000       6.50471000E-05  
3.40300000       6.39115000E-05  
3.40400000       6.27632000E-05  
3.40500000       5.88982000E-05  
3.40600000       4.86832000E-05  
3.40700000       3.84579000E-05  
3.40800000       3.42862000E-05  
3.40900000       3.27135000E-05  
3.41000000       3.11340000E-05  
3.41100000       3.40994000E-05  
3.41200000       3.70610000E-05  
3.41300000       3.84620000E-05  
3.41400000       3.75359000E-05  
3.41500000       3.66023000E-05  
3.41600000       3.44523000E-05  
3.41700000       3.17702000E-05  
3.41800000       2.90988000E-05  
3.41900000       2.98105000E-05  
3.42000000       3.05221000E-05  
3.42100000       3.11908000E-05  
3.42200000       3.17918000E-05  
3.42300000       3.24021000E-05  
3.42400000       3.15243000E-05  
3.42500000       3.00146000E-05  
3.42600000       2.86282000E-05  
3.42700000       2.83982000E-05  
3.42800000       2.81742000E-05  
3.42900000       2.87581000E-05  
3.43000000       3.05684000E-05  
3.43100000       3.23748000E-05  
3.43200000       3.61087000E-05  
3.43300000       4.03145000E-05  
3.43400000       4.43462000E-05  
3.43500000       4.67684000E-05  
3.43600000       4.91939000E-05  
3.43700000       4.81486000E-05  
3.43800000       4.36123000E-05  
3.43900000       3.90887000E-05  
3.44000000       3.47840000E-05  
3.44100000       3.05248000E-05  
3.44200000       2.71601000E-05  
3.44300000       2.73732000E-05  
3.44400000       2.75829000E-05  
3.44500000       2.88246000E-05  
3.44600000       3.11040000E-05  
3.44700000       3.33714000E-05  
3.44800000       3.43160000E-05  
3.44900000       3.51042000E-05  
3.45000000       3.61302000E-05  
3.45100000       3.80484000E-05  
3.45200000       3.99686000E-05  
3.45300000       3.99787000E-05  
3.45400000       3.80938000E-05  
3.45500000       3.62218000E-05  
3.45600000       3.67200000E-05  
3.45700000       3.74915000E-05  
3.45800000       3.79420000E-05  
3.45900000       3.71689000E-05  
3.46000000       3.63903000E-05  
3.46100000       3.32923000E-05  
3.46200000       2.86652000E-05  
3.46300000       2.40441000E-05  
3.46400000       2.37459000E-05  
3.46500000       2.39244000E-05  
3.46600000       2.40472000E-05  
3.46700000       2.40519000E-05  
3.46800000       2.40516000E-05  
3.46900000       2.17179000E-05  
3.47000000       1.78309000E-05  
3.47100000       1.39500000E-05  
3.47200000       1.51207000E-05  
3.47300000       1.62854000E-05  
3.47400000       2.03052000E-05  
3.47500000       3.09617000E-05  
3.47600000       4.15760000E-05  
3.47700000       4.49647000E-05  
3.47800000       4.52566000E-05  
3.47900000       4.55469000E-05  
3.48000000       3.32190000E-05  
3.48100000       2.09352000E-05  
3.48200000       1.19057000E-05  
3.48300000       7.71144000E-06  
3.48400000       3.53496000E-06  
3.48500000       4.22464000E-06  
3.48600000       6.98663000E-06  
3.48700000       9.73611000E-06  
3.48800000       1.07557000E-05  
3.48900000       1.17691000E-05  
3.49000000       1.29403000E-05  
3.49100000       1.43401000E-05  
3.49200000       1.57338000E-05  
3.49300000       1.80393000E-05  
3.49400000       2.07257000E-05  
3.49500000       2.31897000E-05  
3.49600000       2.37408000E-05  
3.49700000       2.42882000E-05  
3.49800000       2.38288000E-05  
3.49900000       2.18748000E-05  
3.50000000       1.99278000E-05  
3.50100000       1.86228000E-05  
3.50200000       1.74724000E-05  
3.50300000       1.62139000E-05  
3.50400000       1.39421000E-05  
3.50500000       1.16734000E-05  
3.50600000       1.09953000E-05  
3.50700000       1.18999000E-05  
3.50800000       1.28018000E-05  
3.50900000       1.56047000E-05  
3.51000000       1.88732000E-05  
3.51100000       2.11947000E-05  
3.51200000       1.97410000E-05  
3.51300000       1.82922000E-05  
3.51400000       1.77470000E-05  
3.51500000       1.81013000E-05  
3.51600000       1.84542000E-05  
3.51700000       1.94870000E-05  
3.51800000       2.05921000E-05  
3.51900000       2.14542000E-05  
3.52000000       2.13624000E-05  
3.52100000       2.12643000E-05  
3.52200000       1.65167000E-05  
3.52300000       8.69111000E-06  
3.52400000       8.90388000E-07  
3.52500000       7.55122000E-08  
3.52600000       3.65759000E-08  
3.52700000       6.29831000E-07  
3.52800000       3.74913000E-06  
3.52900000       6.85763000E-06  
3.53000000       1.02702000E-05  
3.53100000       1.38447000E-05  
3.53200000       1.73894000E-05  
3.53300000       1.65940000E-05  
3.53400000       1.53273000E-05  
3.53500000       1.39371000E-05  
3.53600000       1.22476000E-05  
3.53700000       1.05736000E-05  
3.53800000       9.54094000E-06  
3.53900000       8.93356000E-06  
3.54000000       8.33121000E-06  
3.54100000       6.90273000E-06  
3.54200000       5.48629000E-06  
3.54300000       4.49209000E-06  
3.54400000       4.45762000E-06  
3.54500000       4.42374000E-06  
3.54600000       5.11367000E-06  
3.54700000       6.10581000E-06  
3.54800000       7.08893000E-06  
3.54900000       6.94404000E-06  
3.55000000       6.80018000E-06  
3.55100000       6.78381000E-06  
3.55200000       6.99968000E-06  
3.55300000       7.21047000E-06  
3.55400000       7.85315000E-06  
3.55500000       8.66851000E-06  
3.55600000       9.46551000E-06  
3.55700000       1.02425000E-05  
3.55800000       1.10032000E-05  
3.55900000       9.88702000E-06  
3.56000000       6.02636000E-06  
3.56100000       2.25607000E-06  
3.56200000       8.24888000E-07  
3.56300000       3.92268000E-07  
3.56400000       0.00000000E+00  
3.56500000       0.00000000E+00  
3.56600000       0.00000000E+00  
3.56700000       0.00000000E+00  
3.56800000       0.00000000E+00  
3.56900000       0.00000000E+00  
3.57000000       0.00000000E+00  
3.57100000       0.00000000E+00  
3.57200000       0.00000000E+00  
3.57300000       0.00000000E+00  
3.57400000       0.00000000E+00  
3.57500000       4.19765000E-08  
3.57600000       1.16838000E-07  
3.57700000       1.91334000E-07  
3.57800000       5.83116000E-07  
3.57900000       1.05218000E-06  
3.58000000       1.32063000E-06  
3.58100000       7.95672000E-07  
3.58200000       2.73281000E-07  
3.58300000       1.13176000E-08  
3.58400000       0.00000000E+00  
3.58500000       0.00000000E+00  
3.58600000       0.00000000E+00  
3.58700000       0.00000000E+00  
3.58800000       0.00000000E+00  
3.58900000       0.00000000E+00  
3.59000000       0.00000000E+00  
3.59100000       0.00000000E+00  
3.59200000       0.00000000E+00  
3.59300000       0.00000000E+00  
3.59400000       0.00000000E+00  
3.59500000       0.00000000E+00  
3.59600000       0.00000000E+00  
3.59700000       0.00000000E+00  
3.59800000       0.00000000E+00  
3.59900000       0.00000000E+00  
3.60000000       0.00000000E+00  
3.60100000       0.00000000E+00  
3.60200000       0.00000000E+00  
3.60300000       0.00000000E+00  
3.60400000       0.00000000E+00  
3.60500000       0.00000000E+00  
3.60600000       0.00000000E+00  
3.60700000       0.00000000E+00  
3.60800000       0.00000000E+00  
3.60900000       0.00000000E+00  
3.61000000       0.00000000E+00  
3.61100000       0.00000000E+00  
3.61200000       0.00000000E+00  
3.61300000       0.00000000E+00  
3.61400000       0.00000000E+00  
3.61500000       0.00000000E+00  
3.61600000       0.00000000E+00  
3.61700000       0.00000000E+00  
3.61800000       0.00000000E+00  
3.61900000       0.00000000E+00  
3.62000000       0.00000000E+00  
3.62100000       0.00000000E+00  
3.62200000       0.00000000E+00  
3.62300000       0.00000000E+00  
3.62400000       0.00000000E+00  
3.62500000       0.00000000E+00  
3.62600000       0.00000000E+00  
3.62700000       0.00000000E+00  
3.62800000       0.00000000E+00  
3.62900000       0.00000000E+00  
3.63000000       0.00000000E+00  
3.63100000       0.00000000E+00  
3.63200000       0.00000000E+00  
3.63300000       4.55322000E-08  
3.63400000       4.61637000E-07  
3.63500000       8.74609000E-07  
3.63600000       9.47887000E-07  
3.63700000       5.16727000E-07  
3.63800000       8.89271000E-08  
3.63900000       0.00000000E+00  
3.64000000       0.00000000E+00  
3.64100000       0.00000000E+00  
3.64200000       0.00000000E+00  
3.64300000       0.00000000E+00  
3.64400000       1.67626000E-07  
3.64500000       4.93657000E-07  
3.64600000       8.17136000E-07  
3.64700000       6.09458000E-07  
3.64800000       2.71860000E-07  
3.64900000       0.00000000E+00  
3.65000000       0.00000000E+00  
3.65100000       0.00000000E+00  
3.65200000       0.00000000E+00  
3.65300000       0.00000000E+00  
3.65400000       0.00000000E+00  
3.65500000       0.00000000E+00  
3.65600000       0.00000000E+00  
3.65700000       0.00000000E+00  
3.65800000       0.00000000E+00  
3.65900000       0.00000000E+00  
3.66000000       8.73477000E-09  
3.66100000       1.75220000E-08  
3.66200000       2.62336000E-08  
3.66300000       2.53404000E-06  
3.66400000       5.29662000E-06  
3.66500000       7.02977000E-06  
3.66600000       6.41160000E-06  
3.66700000       5.79765000E-06  
3.66800000       4.37275000E-06  
3.66900000       2.41866000E-06  
3.67000000       4.81057000E-07  
3.67100000       1.88703000E-07  
3.67200000       7.92701000E-08  
3.67300000       0.00000000E+00  
3.67400000       0.00000000E+00  
3.67500000       0.00000000E+00  
3.67600000       0.00000000E+00  
3.67700000       0.00000000E+00  
3.67800000       0.00000000E+00  
3.67900000       0.00000000E+00  
3.68000000       0.00000000E+00  
3.68100000       1.31778000E-08  
3.68200000       4.65144000E-08  
3.68300000       7.95475000E-08  
3.68400000       2.70173000E-06  
3.68500000       6.40369000E-06  
3.68600000       1.00716000E-05  
3.68700000       1.00730000E-05  
3.68800000       1.00739000E-05  
3.68900000       8.59446000E-06  
3.69000000       4.91739000E-06  
3.69100000       1.27616000E-06  
3.69200000       1.39100000E-07  
3.69300000       6.71049000E-08  
3.69400000       0.00000000E+00  
3.69500000       3.85254000E-08  
3.69600000       7.05540000E-08  
3.69700000       8.90372000E-07  
3.69800000       2.87905000E-06  
3.69900000       4.84783000E-06  
3.70000000       3.71745000E-06  
3.70100000       1.83541000E-06  
3.70200000       1.49298000E-07  
3.70300000       9.25449000E-08  
3.70400000       3.63013000E-08  
3.70500000       0.00000000E+00  
3.70600000       1.91545000E-08  
3.70700000       3.07212000E-08  
3.70800000       4.69962000E-07  
3.70900000       1.01165000E-06  
3.71000000       1.72656000E-06  
3.71100000       4.03029000E-06  
3.71200000       6.31286000E-06  
3.71300000       7.03869000E-06  
3.71400000       6.23098000E-06  
3.71500000       5.42993000E-06  
3.71600000       3.66280000E-06  
3.71700000       1.66982000E-06  
3.71800000       8.25586000E-08  
3.71900000       5.03382000E-08  
3.72000000       1.84237000E-08  
3.72100000       1.24945000E-08  
3.72200000       3.21718000E-08  
3.72300000       5.16534000E-08  
3.72400000       7.94353000E-07  
3.72500000       1.60997000E-06  
3.72600000       2.37448000E-06  
3.72700000       2.95806000E-06  
3.72800000       3.53651000E-06  
3.72900000       3.61793000E-06  
3.73000000       3.37185000E-06  
3.73100000       3.12846000E-06  
3.73200000       3.02095000E-06  
3.73300000       2.92856000E-06  
3.73400000       3.01876000E-06  
3.73500000       3.52864000E-06  
3.73600000       4.03245000E-06  
3.73700000       4.48811000E-06  
3.73800000       4.90963000E-06  
3.73900000       5.32601000E-06  
3.74000000       5.30173000E-06  
3.74100000       5.22915000E-06  
3.74200000       5.42281000E-06  
3.74300000       6.22849000E-06  
3.74400000       7.02696000E-06  
3.74500000       8.65656000E-06  
3.74600000       1.08233000E-05  
3.74700000       1.29673000E-05  
3.74800000       1.37951000E-05  
3.74900000       1.46089000E-05  
3.75000000       1.52675000E-05  
3.75100000       1.53835000E-05  
3.75200000       1.54827000E-05  
3.75300000       1.54464000E-05  
3.75400000       1.53507000E-05  
3.75500000       1.52449000E-05  
3.75600000       1.50239000E-05  
3.75700000       1.48002000E-05  
3.75800000       1.44473000E-05  
3.75900000       1.39182000E-05  
3.76000000       1.33977000E-05  
3.76100000       1.25695000E-05  
3.76200000       1.15127000E-05  
3.76300000       1.05333000E-05  
3.76400000       1.01610000E-05  
3.76500000       9.78922000E-06  
3.76600000       9.78713000E-06  
3.76700000       1.03306000E-05  
3.76800000       1.08695000E-05  
3.76900000       1.13368000E-05  
3.77000000       1.17874000E-05  
3.77100000       1.21800000E-05  
3.77200000       1.20836000E-05  
3.77300000       1.19840000E-05  
3.77400000       1.19016000E-05  
3.77500000       1.18389000E-05  
3.77600000       1.17765000E-05  
3.77700000       1.09761000E-05  
3.77800000       1.00024000E-05  
3.77900000       9.04527000E-06  
3.78000000       8.17420000E-06  
3.78100000       7.33125000E-06  
3.78200000       7.49802000E-06  
3.78300000       8.67015000E-06  
3.78400000       9.83981000E-06  
3.78500000       1.06437000E-05  
3.78600000       1.13539000E-05  
3.78700000       1.19255000E-05  
3.78800000       1.19385000E-05  
3.78900000       1.19514000E-05  
3.79000000       1.15713000E-05  
3.79100000       1.07981000E-05  
3.79200000       1.00255000E-05  
3.79300000       1.00189000E-05  
3.79400000       1.00981000E-05  
3.79500000       1.02903000E-05  
3.79600000       1.09341000E-05  
3.79700000       1.15765000E-05  
3.79800000       1.18463000E-05  
3.79900000       1.18681000E-05  
3.80000000       1.18898000E-05  
3.80100000       1.18402000E-05  
3.80200000       1.17841000E-05  
3.80300000       1.13612000E-05  
3.80400000       1.00836000E-05  
3.80500000       8.80821000E-06  
3.80600000       7.42206000E-06  
3.80700000       5.96311000E-06  
3.80800000       4.50687000E-06  
3.80900000       4.48882000E-06  
3.81000000       4.47032000E-06  
3.81100000       4.78271000E-06  
3.81200000       5.86388000E-06  
3.81300000       6.94275000E-06  
3.81400000       7.75747000E-06  
3.81500000       8.39635000E-06  
3.81600000       9.03366000E-06  
3.81700000       8.73444000E-06  
3.81800000       8.43574000E-06  
3.81900000       8.26681000E-06  
3.82000000       8.39405000E-06  
3.82100000       8.51943000E-06  
3.82200000       9.65882000E-06  
3.82300000       1.12294000E-05  
3.82400000       1.27967000E-05  
3.82500000       1.32765000E-05  
3.82600000       1.37551000E-05  
3.82700000       1.40608000E-05  
3.82800000       1.41009000E-05  
3.82900000       1.41409000E-05  
3.83000000       1.37102000E-05  
3.83100000       1.30786000E-05  
3.83200000       1.23131000E-05  
3.83300000       1.03363000E-05  
3.83400000       8.35986000E-06  
3.83500000       7.14606000E-06  
3.83600000       7.06937000E-06  
3.83700000       6.99283000E-06  
3.83800000       7.59911000E-06  
3.83900000       8.37262000E-06  
3.84000000       9.06975000E-06  
3.84100000       9.09486000E-06  
3.84200000       9.11891000E-06  
3.84300000       8.61533000E-06  
3.84400000       7.58198000E-06  
3.84500000       6.55109000E-06  
3.84600000       5.89282000E-06  
3.84700000       5.32849000E-06  
3.84800000       4.85120000E-06  
3.84900000       5.13673000E-06  
3.85000000       5.42162000E-06  
3.85100000       5.91552000E-06  
3.85200000       6.61897000E-06  
3.85300000       7.31965000E-06  
3.85400000       7.83981000E-06  
3.85500000       8.31391000E-06  
3.85600000       8.71815000E-06  
3.85700000       8.84922000E-06  
3.85800000       8.97719000E-06  
3.85900000       8.89871000E-06  
3.86000000       8.61438000E-06  
3.86100000       8.33235000E-06  
3.86200000       7.50711000E-06  
3.86300000       6.62338000E-06  
3.86400000       5.78209000E-06  
3.86500000       5.10650000E-06  
3.86600000       4.43123000E-06  
3.86700000       4.80641000E-06  
3.86800000       5.87910000E-06  
3.86900000       6.95080000E-06  
3.87000000       6.97887000E-06  
3.87100000       6.89031000E-06  
3.87200000       6.54700000E-06  
3.87300000       5.61131000E-06  
3.87400000       4.67617000E-06  
3.87500000       3.99837000E-06  
3.87600000       3.49179000E-06  
3.87700000       2.98685000E-06  
3.87800000       2.74050000E-06  
3.87900000       2.49500000E-06  
3.88000000       2.46713000E-06  
3.88100000       2.94782000E-06  
3.88200000       3.42738000E-06  
3.88300000       4.29505000E-06  
3.88400000       5.42126000E-06  
3.88500000       6.54664000E-06  
3.88600000       7.15196000E-06  
3.88700000       7.75666000E-06  
3.88800000       8.12838000E-06  
3.88900000       7.96078000E-06  
3.89000000       7.79255000E-06  
3.89100000       7.63095000E-06  
3.89200000       7.47272000E-06  
3.89300000       7.31470000E-06  
3.89400000       7.85359000E-06  
3.89500000       8.39022000E-06  
3.89600000       8.81230000E-06  
3.89700000       9.06327000E-06  
3.89800000       9.31570000E-06  
3.89900000       9.41548000E-06  
3.90000000       9.44788000E-06  
3.90100000       9.53185000E-06  
3.90200000       1.00798000E-05  
3.90300000       1.06272000E-05  
3.90400000       1.06762000E-05  
3.90500000       9.98209000E-06  
3.90600000       9.28559000E-06  
3.90700000       8.15788000E-06  
3.90800000       6.92396000E-06  
3.90900000       5.76631000E-06  
3.91000000       5.27993000E-06  
3.91100000       4.79494000E-06  
3.91200000       4.72607000E-06  
3.91300000       5.07133000E-06  
3.91400000       5.41604000E-06  
3.91500000       6.12842000E-06  
3.91600000       6.93186000E-06  
3.91700000       7.62260000E-06  
3.91800000       7.86188000E-06  
3.91900000       8.10017000E-06  
3.92000000       8.13322000E-06  
3.92100000       7.95822000E-06  
3.92200000       7.78427000E-06  
3.92300000       8.01380000E-06  
3.92400000       8.34399000E-06  
3.92500000       8.63207000E-06  
3.92600000       8.75404000E-06  
3.92700000       8.87490000E-06  
3.92800000       9.03708000E-06  
3.92900000       9.24233000E-06  
3.93000000       9.44554000E-06  
3.93100000       9.52486000E-06  
3.93200000       9.58921000E-06  
3.93300000       9.44810000E-06  
3.93400000       8.48623000E-06  
3.93500000       7.52650000E-06  
3.93600000       6.19289000E-06  
3.93700000       4.61228000E-06  
3.93800000       3.03378000E-06  
3.93900000       2.35523000E-06  
3.94000000       1.77648000E-06  
3.94100000       1.42304000E-06  
3.94200000       1.59417000E-06  
3.94300000       1.76496000E-06  
3.94400000       2.37309000E-06  
3.94500000       3.27179000E-06  
3.94600000       4.16996000E-06  
3.94700000       4.36494000E-06  
3.94800000       4.55966000E-06  
3.94900000       4.66901000E-06  
3.95000000       4.57481000E-06  
3.95100000       4.48067000E-06  
3.95200000       4.38749000E-06  
3.95300000       4.29526000E-06  
3.95400000       4.20269000E-06  
3.95500000       4.35045000E-06  
3.95600000       4.49853000E-06  
3.95700000       4.72841000E-06  
3.95800000       5.15019000E-06  
3.95900000       5.57211000E-06  
3.96000000       5.91520000E-06  
3.96100000       6.22688000E-06  
3.96200000       6.53774000E-06  
3.96300000       6.47663000E-06  
3.96400000       6.41558000E-06  
3.96500000       6.27576000E-06  
3.96600000       6.01601000E-06  
3.96700000       5.75659000E-06  
3.96800000       5.35177000E-06  
3.96900000       4.88460000E-06  
3.97000000       4.47010000E-06  
3.97100000       4.52894000E-06  
3.97200000       4.58824000E-06  
3.97300000       4.95712000E-06  
3.97400000       5.79219000E-06  
3.97500000       6.62485000E-06  
3.97600000       7.37949000E-06  
3.97700000       8.11472000E-06  
3.97800000       8.86269000E-06  
3.97900000       9.73852000E-06  
3.98000000       1.06144000E-05  
3.98100000       1.13434000E-05  
3.98200000       1.19274000E-05  
3.98300000       1.25120000E-05  
3.98400000       1.21027000E-05  
3.98500000       1.14463000E-05  
3.98600000       1.06254000E-05  
3.98700000       9.14147000E-06  
3.98800000       7.65699000E-06  
3.98900000       6.52290000E-06  
3.99000000       5.73782000E-06  
3.99100000       4.95357000E-06  
3.99200000       5.44273000E-06  
3.99300000       6.24852000E-06  
3.99400000       7.13498000E-06  
3.99500000       8.34297000E-06  
3.99600000       9.55005000E-06  
3.99700000       1.03572000E-05  
3.99800000       1.07631000E-05  
3.99900000       1.11688000E-05  
4.00000000       1.03935000E-05  
4.00100000       9.48833000E-06  
4.00200000       8.54613000E-06  
4.00300000       7.46167000E-06  
4.00400000       6.37693000E-06  
4.00500000       5.64338000E-06  
4.00600000       5.14205000E-06  
4.00700000       4.64124000E-06  
4.00800000       4.40926000E-06  
4.00900000       4.20679000E-06  
4.01000000       4.10123000E-06  
4.01100000       4.22160000E-06  
4.01200000       4.34139000E-06  
4.01300000       4.79721000E-06  
4.01400000       5.47679000E-06  
4.01500000       6.15511000E-06  
4.01600000       6.69695000E-06  
4.01700000       7.23778000E-06  
4.01800000       7.70614000E-06  
4.01900000       8.00296000E-06  
4.02000000       8.29870000E-06  
4.02100000       8.51909000E-06  
4.02200000       8.70811000E-06  
4.02300000       8.89600000E-06  
4.02400000       8.88714000E-06  
4.02500000       8.87926000E-06  
4.02600000       8.61341000E-06  
4.02700000       7.74904000E-06  
4.02800000       6.88461000E-06  
4.02900000       6.50577000E-06  
4.03000000       6.33597000E-06  
4.03100000       6.16566000E-06  
4.03200000       6.51201000E-06  
4.03300000       6.85875000E-06  
4.03400000       6.97573000E-06  
4.03500000       6.74921000E-06  
4.03600000       6.52431000E-06  
4.03700000       5.86992000E-06  
4.03800000       5.03299000E-06  
4.03900000       4.22119000E-06  
4.04000000       3.62325000E-06  
4.04100000       3.02595000E-06  
4.04200000       2.65544000E-06  
4.04300000       2.62412000E-06  
4.04400000       2.59285000E-06  
4.04500000       3.15949000E-06  
4.04600000       3.87439000E-06  
4.04700000       4.58689000E-06  
4.04800000       5.28464000E-06  
4.04900000       5.98114000E-06  
4.05000000       6.50400000E-06  
4.05100000       6.85376000E-06  
4.05200000       7.20242000E-06  
4.05300000       7.13597000E-06  
4.05400000       6.96687000E-06  
4.05500000       6.75853000E-06  
4.05600000       6.38869000E-06  
4.05700000       6.02011000E-06  
4.05800000       5.79782000E-06  
4.05900000       5.72218000E-06  
4.06000000       5.64661000E-06  
4.06100000       6.10660000E-06  
4.06200000       6.62495000E-06  
4.06300000       6.88820000E-06  
4.06400000       6.13480000E-06  
4.06500000       5.38145000E-06  
4.06600000       4.76569000E-06  
4.06700000       4.28717000E-06  
4.06800000       3.80921000E-06  
4.06900000       4.00776000E-06  
4.07000000       4.28142000E-06  
4.07100000       4.72042000E-06  
4.07200000       5.81951000E-06  
4.07300000       6.91661000E-06  
4.07400000       7.59096000E-06  
4.07500000       7.98458000E-06  
4.07600000       8.37690000E-06  
4.07700000       8.16271000E-06  
4.07800000       7.88187000E-06  
4.07900000       7.47230000E-06  
4.08000000       6.75901000E-06  
4.08100000       6.04701000E-06  
4.08200000       5.72529000E-06  
4.08300000       5.66392000E-06  
4.08400000       5.60207000E-06  
4.08500000       6.07436000E-06  
4.08600000       6.54464000E-06  
4.08700000       7.09279000E-06  
4.08800000       7.82095000E-06  
4.08900000       8.54810000E-06  
4.09000000       8.86513000E-06  
4.09100000       9.00676000E-06  
4.09200000       9.14906000E-06  
4.09300000       9.06172000E-06  
4.09400000       8.97446000E-06  
4.09500000       8.69295000E-06  
4.09600000       8.12144000E-06  
4.09700000       7.55034000E-06  
4.09800000       7.33358000E-06  
4.09900000       7.26847000E-06  
4.10000000       7.20273000E-06  
4.10100000       7.46643000E-06  
4.10200000       7.72976000E-06  
4.10300000       7.82217000E-06  
4.10400000       7.65855000E-06  
4.10500000       7.49366000E-06  
4.10600000       6.64366000E-06  
4.10700000       5.50182000E-06  
4.10800000       4.52612000E-06  
4.10900000       5.02495000E-06  
4.11000000       5.52322000E-06  
4.11100000       6.17899000E-06  
4.11200000       7.06882000E-06  
4.11300000       7.95696000E-06  
4.11400000       8.64583000E-06  
4.11500000       9.28403000E-06  
4.11600000       9.85262000E-06  
4.11700000       9.80591000E-06  
4.11800000       9.75722000E-06  
4.11900000       9.48873000E-06  
4.12000000       9.00164000E-06  
4.12100000       8.51453000E-06  
4.12200000       7.78039000E-06  
4.12300000       6.98761000E-06  
4.12400000       6.30515000E-06  
4.12500000       6.06464000E-06  
4.12600000       5.82455000E-06  
4.12700000       5.69492000E-06  
4.12800000       5.67667000E-06  
4.12900000       5.65730000E-06  
4.13000000       5.74783000E-06  
4.13100000       5.85042000E-06  
4.13200000       5.98265000E-06  
4.13300000       6.23375000E-06  
4.13400000       6.48567000E-06  
4.13500000       6.79383000E-06  
4.13600000       7.15902000E-06  
4.13700000       7.52349000E-06  
4.13800000       7.78487000E-06  
4.13900000       8.03595000E-06  
4.14000000       8.20652000E-06  
4.14100000       8.06371000E-06  
4.14200000       7.92109000E-06  
4.14300000       7.62109000E-06  
4.14400000       7.21674000E-06  
4.14500000       6.81456000E-06  
4.14600000       6.47360000E-06  
4.14700000       6.14017000E-06  
4.14800000       6.03379000E-06  
4.14900000       6.45687000E-06  
4.15000000       6.88031000E-06  
4.15100000       7.34786000E-06  
4.15200000       7.84522000E-06  
4.15300000       8.34165000E-06  
4.15400000       8.81507000E-06  
4.15500000       9.28784000E-06  
4.15600000       9.68542000E-06  
4.15700000       9.90322000E-06  
4.15800000       1.01194000E-05  
4.15900000       9.89800000E-06  
4.16000000       9.48933000E-06  
4.16100000       9.08153000E-06  
4.16200000       8.52991000E-06  
4.16300000       7.97786000E-06  
4.16400000       7.34918000E-06  
4.16500000       6.60539000E-06  
4.16600000       5.86306000E-06  
4.16700000       4.83322000E-06  
4.16800000       3.68282000E-06  
4.16900000       2.53422000E-06  
4.17000000       1.66755000E-06  
4.17100000       8.02569000E-07  
4.17200000       2.42409000E-07  
4.17300000       1.37420000E-07  
4.17400000       3.26314000E-08  
4.17500000       0.00000000E+00  
4.17600000       0.00000000E+00  
4.17700000       0.00000000E+00  
4.17800000       4.56944000E-08  
4.17900000       8.60181000E-08  
4.18000000       8.16614000E-07  
4.18100000       2.58280000E-06  
4.18200000       4.34557000E-06  
4.18300000       4.91924000E-06  
4.18400000       5.19527000E-06  
4.18500000       5.41324000E-06  
4.18600000       5.12072000E-06  
4.18700000       4.82878000E-06  
4.18800000       4.79663000E-06  
4.18900000       5.02299000E-06  
4.19000000       5.24943000E-06  
4.19100000       5.25288000E-06  
4.19200000       5.20088000E-06  
4.19300000       5.10736000E-06  
4.19400000       4.84755000E-06  
4.19500000       4.58924000E-06  
4.19600000       4.34481000E-06  
4.19700000       4.11404000E-06  
4.19800000       3.88379000E-06  
4.19900000       3.80888000E-06  
4.20000000       3.75135000E-06  
4.20100000       3.68786000E-06  
4.20200000       3.60224000E-06  
4.20300000       3.51698000E-06  
4.20400000       3.35029000E-06  
4.20500000       3.12954000E-06  
4.20600000       2.91011000E-06  
4.20700000       2.74395000E-06  
4.20800000       2.58394000E-06  
4.20900000       2.56660000E-06  
4.21000000       3.11348000E-06  
4.21100000       3.65760000E-06  
4.21200000       4.24378000E-06  
4.21300000       4.85670000E-06  
4.21400000       5.46717000E-06  
4.21500000       5.76723000E-06  
4.21600000       6.03263000E-06  
4.21700000       6.18433000E-06  
4.21800000       6.07477000E-06  
4.21900000       5.96634000E-06  
4.22000000       5.77361000E-06  
4.22100000       5.52445000E-06  
4.22200000       5.27714000E-06  
4.22300000       4.44681000E-06  
4.22400000       3.62078000E-06  
4.22500000       2.90141000E-06  
4.22600000       2.42469000E-06  
4.22700000       1.95023000E-06  
4.22800000       1.76104000E-06  
4.22900000       1.69319000E-06  
4.23000000       1.62582000E-06  
4.23100000       1.95914000E-06  
4.23200000       2.29065000E-06  
4.23300000       2.72938000E-06  
4.23400000       3.32870000E-06  
4.23500000       3.92524000E-06  
4.23600000       3.87208000E-06  
4.23700000       3.54398000E-06  
4.23800000       3.18500000E-06  
4.23900000       2.53315000E-06  
4.24000000       1.88468000E-06  
4.24100000       1.38150000E-06  
4.24200000       1.09419000E-06  
4.24300000       8.08380000E-07  
4.24400000       9.16520000E-07  
4.24500000       1.19208000E-06  
4.24600000       1.38557000E-06  
4.24700000       8.54073000E-07  
4.24800000       3.25516000E-07  
4.24900000       8.31613000E-09  
4.25000000       0.00000000E+00  
4.25100000       0.00000000E+00  
4.25200000       0.00000000E+00  
4.25300000       0.00000000E+00  
4.25400000       0.00000000E+00  
4.25500000       0.00000000E+00  
4.25600000       0.00000000E+00  
4.25700000       2.20360000E-08  
4.25800000       6.38323000E-08  
4.25900000       1.05410000E-07  
4.26000000       3.05761000E-07  
4.26100000       5.44640000E-07  
4.26200000       6.92090000E-07  
4.26300000       4.79904000E-07  
4.26400000       2.68839000E-07  
4.26500000       1.32214000E-07  
4.26600000       6.95896000E-08  
4.26700000       0.00000000E+00  
4.26800000       0.00000000E+00  
4.26900000       0.00000000E+00  
4.27000000       0.00000000E+00  
4.27100000       0.00000000E+00  
4.27200000       0.00000000E+00  
4.27300000       0.00000000E+00  
4.27400000       0.00000000E+00  
4.27500000       0.00000000E+00  
4.27600000       3.64768000E-07  
4.27700000       7.56147000E-07  
4.27800000       1.00457000E-06  
4.27900000       7.08829000E-07  
4.28000000       4.17994000E-07  
4.28100000       2.37210000E-07  
4.28200000       1.28851000E-07  
4.28300000       2.23662000E-08  
4.28400000       7.96934000E-09  
4.28500000       0.00000000E+00  
4.28600000       0.00000000E+00  
4.28700000       0.00000000E+00  
4.28800000       0.00000000E+00  
4.28900000       2.88540000E-08  
4.29000000       7.47731000E-08  
4.29100000       1.19805000E-07  
4.29200000       4.30261000E-07  
4.29300000       7.34770000E-07  
4.29400000       1.01631000E-06  
4.29500000       1.25303000E-06  
4.29600000       1.48497000E-06  
4.29700000       1.49503000E-06  
4.29800000       1.41240000E-06  
4.29900000       1.33132000E-06  
4.30000000       1.73561000E-06  
4.30100000       2.08662000E-06  
4.30200000       2.24781000E-06  
4.30300000       2.15699000E-06  
4.30400000       2.06732000E-06  
4.30500000       1.71774000E-06  
4.30600000       1.28089000E-06  
4.30700000       8.82419000E-07  
4.30800000       5.95851000E-07  
4.30900000       3.30077000E-07  
4.31000000       2.56494000E-07  
4.31100000       4.30977000E-07  
4.31200000       5.85196000E-07  
4.31300000       8.13225000E-07  
4.31400000       1.04740000E-06  
4.31500000       1.22860000E-06  
4.31600000       1.23779000E-06  
4.31700000       1.23312000E-06  
4.31800000       1.11686000E-06  
4.31900000       8.69226000E-07  
4.32000000       6.49996000E-07  
4.32100000       5.21847000E-07  
4.32200000       4.04299000E-07  
4.32300000       3.01527000E-07  
4.32400000       2.87507000E-07  
4.32500000       2.73819000E-07  
4.32600000       2.50797000E-07  
4.32700000       2.19320000E-07  
4.32800000       1.89216000E-07  
4.32900000       1.25791000E-07  
4.33000000       5.74099000E-08  
4.33100000       0.00000000E+00  
4.33200000       0.00000000E+00  
4.33300000       0.00000000E+00  
4.33400000       0.00000000E+00  
4.33500000       0.00000000E+00  
4.33600000       0.00000000E+00  
4.33700000       0.00000000E+00  
4.33800000       0.00000000E+00  
4.33900000       0.00000000E+00  
4.34000000       0.00000000E+00  
4.34100000       0.00000000E+00  
4.34200000       0.00000000E+00  
4.34300000       0.00000000E+00  
4.34400000       0.00000000E+00  
4.34500000       0.00000000E+00  
4.34600000       0.00000000E+00  
4.34700000       0.00000000E+00  
4.34800000       2.18218000E-08  
4.34900000       3.55989000E-08  
4.35000000       5.28089000E-08  
4.35100000       7.64545000E-08  
4.35200000       1.00082000E-07  
4.35300000       6.87235000E-08  
4.35400000       3.13389000E-08  
4.35500000       0.00000000E+00  
4.35600000       0.00000000E+00  
4.35700000       0.00000000E+00  
4.35800000       0.00000000E+00  
4.35900000       0.00000000E+00  
4.36000000       0.00000000E+00  
4.36100000       0.00000000E+00  
4.36200000       0.00000000E+00  
4.36300000       0.00000000E+00  
4.36400000       0.00000000E+00  
4.36500000       0.00000000E+00  
4.36600000       2.16969000E-08  
4.36700000       5.15705000E-08  
4.36800000       8.14080000E-08  
4.36900000       1.13322000E-07  
4.37000000       1.45221000E-07  
4.37100000       1.68607000E-07  
4.37200000       1.79146000E-07  
4.37300000       1.89678000E-07  
4.37400000       1.93540000E-07  
4.37500000       1.94550000E-07  
4.37600000       1.97397000E-07  
4.37700000       2.16751000E-07  
4.37800000       2.36101000E-07  
4.37900000       2.45836000E-07  
4.38000000       2.41110000E-07  
4.38100000       2.36416000E-07  
4.38200000       2.27581000E-07  
4.38300000       2.17709000E-07  
4.38400000       2.07023000E-07  
4.38500000       1.88570000E-07  
4.38600000       1.70130000E-07  
4.38700000       1.42461000E-07  
4.38800000       1.00956000E-07  
4.38900000       5.94586000E-08  
4.39000000       3.64592000E-08  
4.39100000       1.80943000E-08  
4.39200000       0.00000000E+00  
4.39300000       0.00000000E+00  
4.39400000       0.00000000E+00  
4.39500000       0.00000000E+00  
4.39600000       0.00000000E+00  
4.39700000       0.00000000E+00  
4.39800000       0.00000000E+00  
4.39900000       0.00000000E+00  
4.40000000       1.75337000E-08  
4.40100000       6.42161000E-08  
4.40200000       1.10889000E-07  
4.40300000       1.49623000E-07  
4.40400000       1.80358000E-07  
4.40500000       2.11126000E-07  
4.40600000       2.39337000E-07  
4.40700000       2.67265000E-07  
4.40800000       2.98607000E-07  
4.40900000       3.43638000E-07  
4.41000000       3.88630000E-07  
4.41100000       4.37548000E-07  
4.41200000       4.89125000E-07  
4.41300000       5.40579000E-07  
4.41400000       5.70608000E-07  
4.41500000       5.98249000E-07  
4.41600000       6.17623000E-07  
4.41700000       6.17538000E-07  
4.41800000       6.17389000E-07  
4.41900000       5.71545000E-07  
4.42000000       4.95356000E-07  
4.42100000       4.19203000E-07  
4.42200000       3.26748000E-07  
4.42300000       2.32507000E-07  
4.42400000       1.55040000E-07  
4.42500000       1.16708000E-07  
4.42600000       7.83863000E-08  
4.42700000       6.98193000E-08  
4.42800000       8.10397000E-08  
4.42900000       9.22762000E-08  
4.43000000       1.63314000E-07  
4.43100000       2.34357000E-07  
4.43200000       2.89029000E-07  
4.43300000       3.05545000E-07  
4.43400000       3.22023000E-07  
4.43500000       3.31617000E-07  
4.43600000       3.38207000E-07  
4.43700000       3.44796000E-07  
4.43800000       3.37054000E-07  
4.43900000       3.29376000E-07  
4.44000000       3.14200000E-07  
4.44100000       2.87842000E-07  
4.44200000       2.61491000E-07  
4.44300000       2.53959000E-07  
4.44400000       2.54445000E-07  
4.44500000       2.54446000E-07  
4.44600000       2.49523000E-07  
4.44700000       2.44630000E-07  
4.44800000       2.35648000E-07  
4.44900000       2.20602000E-07  
4.45000000       2.05575000E-07  
4.45100000       1.86608000E-07  
4.45200000       1.66667000E-07  
4.45300000       1.47514000E-07  
4.45400000       1.35408000E-07  
4.45500000       1.23287000E-07  
4.45600000       1.14537000E-07  
4.45700000       1.09135000E-07  
4.45800000       1.03744000E-07  
4.45900000       1.11411000E-07  
4.46000000       1.22365000E-07  
4.46100000       1.33988000E-07  
4.46200000       1.51700000E-07  
4.46300000       1.69427000E-07  
4.46400000       1.88022000E-07  
4.46500000       2.07509000E-07  
4.46600000       2.26997000E-07  
4.46700000       2.33272000E-07  
4.46800000       2.36295000E-07  
4.46900000       2.45157000E-07  
4.47000000       2.77393000E-07  
4.47100000       3.09672000E-07  
4.47200000       3.49497000E-07  
4.47300000       3.96875000E-07  
4.47400000       4.44202000E-07  
4.47500000       4.75263000E-07  
4.47600000       5.04509000E-07  
4.47700000       5.27090000E-07  
4.47800000       5.22666000E-07  
4.47900000       5.18302000E-07  
4.48000000       5.01596000E-07  
4.48100000       4.76675000E-07  
4.48200000       4.51702000E-07  
4.48300000       4.12414000E-07  
4.48400000       3.71507000E-07  
4.48500000       3.48300000E-07  
4.48600000       3.66358000E-07  
4.48700000       3.84370000E-07  
4.48800000       4.07076000E-07  
4.48900000       4.33013000E-07  
4.49000000       4.58952000E-07  
4.49100000       4.87114000E-07  
4.49200000       5.15217000E-07  
4.49300000       5.14796000E-07  
4.49400000       4.47756000E-07  
4.49500000       3.80776000E-07  
4.49600000       3.33102000E-07  
4.49700000       2.98404000E-07  
4.49800000       2.63724000E-07  
4.49900000       2.50374000E-07  
4.50000000       2.37025000E-07  
4.50100000       2.43154000E-07  
4.50200000       2.94892000E-07  
4.50300000       3.46631000E-07  
4.50400000       4.03120000E-07  
4.50500000       4.61707000E-07  
4.50600000       5.20244000E-07  
4.50700000       5.73244000E-07  
4.50800000       6.26350000E-07  
4.50900000       6.42043000E-07  
4.51000000       6.01384000E-07  
4.51100000       5.60874000E-07  
4.51200000       5.25089000E-07  
4.51300000       4.91224000E-07  
4.51400000       4.58657000E-07  
4.51500000       4.36707000E-07  
4.51600000       4.14849000E-07  
4.51700000       4.03692000E-07  
4.51800000       4.08627000E-07  
4.51900000       4.13643000E-07  
4.52000000       3.93773000E-07  
4.52100000       3.67778000E-07  
4.52200000       3.41208000E-07  
4.52300000       3.10217000E-07  
4.52400000       2.79172000E-07  
4.52500000       2.55522000E-07  
4.52600000       2.39328000E-07  
4.52700000       2.23114000E-07  
4.52800000       2.26850000E-07  
4.52900000       2.35522000E-07  
4.53000000       2.46163000E-07  
4.53100000       2.73691000E-07  
4.53200000       3.01270000E-07  
4.53300000       3.43511000E-07  
4.53400000       4.00596000E-07  
4.53500000       4.57588000E-07  
4.53600000       4.93466000E-07  
4.53700000       5.23874000E-07  
4.53800000       5.48963000E-07  
4.53900000       5.52304000E-07  
4.54000000       5.55812000E-07  
4.54100000       5.43681000E-07  
4.54200000       5.15991000E-07  
4.54300000       4.88189000E-07  
4.54400000       4.61601000E-07  
4.54500000       4.35052000E-07  
4.54600000       4.10470000E-07  
4.54700000       3.93315000E-07  
4.54800000       3.76242000E-07  
4.54900000       3.75896000E-07  
4.55000000       3.86765000E-07  
4.55100000       3.97511000E-07  
4.55200000       3.91366000E-07  
4.55300000       3.83199000E-07  
4.55400000       3.73247000E-07  
4.55500000       3.58917000E-07  
4.55600000       3.44612000E-07  
4.55700000       3.30190000E-07  
4.55800000       3.15795000E-07  
4.55900000       3.01500000E-07  
4.56000000       3.25688000E-07  
4.56100000       3.49937000E-07  
4.56200000       3.77448000E-07  
4.56300000       4.12672000E-07  
4.56400000       4.47878000E-07  
4.56500000       4.42168000E-07  
4.56600000       4.09115000E-07  
4.56700000       3.76194000E-07  
4.56800000       3.57791000E-07  
4.56900000       3.39430000E-07  
4.57000000       3.23102000E-07  
4.57100000       3.11558000E-07  
4.57200000       3.00049000E-07  
4.57300000       2.94672000E-07  
4.57400000       2.92026000E-07  
4.57500000       2.89324000E-07  
4.57600000       2.84390000E-07  
4.57700000       2.79401000E-07  
4.57800000       2.75155000E-07  
4.57900000       2.71798000E-07  
4.58000000       2.68528000E-07  
4.58100000       2.81082000E-07  
4.58200000       3.00513000E-07  
4.58300000       3.19435000E-07  
4.58400000       3.33654000E-07  
4.58500000       3.47979000E-07  
4.58600000       3.61038000E-07  
4.58700000       3.72482000E-07  
4.58800000       3.83886000E-07  
4.58900000       4.12010000E-07  
4.59000000       4.44395000E-07  
4.59100000       4.73753000E-07  
4.59200000       4.76984000E-07  
4.59300000       4.80160000E-07  
4.59400000       4.69089000E-07  
4.59500000       4.43841000E-07  
4.59600000       4.18631000E-07  
4.59700000       3.88309000E-07  
4.59800000       3.56919000E-07  
4.59900000       3.30966000E-07  
4.60000000       3.26939000E-07  
4.60100000       3.22808000E-07  
4.60200000       3.33412000E-07  
4.60300000       3.58602000E-07  
4.60400000       3.83793000E-07  
4.60500000       4.28408000E-07  
4.60600000       4.77833000E-07  
4.60700000       5.24348000E-07  
4.60800000       5.59474000E-07  
4.60900000       5.94686000E-07  
4.61000000       6.07067000E-07  
4.61100000       5.96796000E-07  
4.61200000       5.86456000E-07  
4.61300000       5.53917000E-07  
4.61400000       5.18834000E-07  
4.61500000       4.86071000E-07  
4.61600000       4.62812000E-07  
4.61700000       4.39615000E-07  
4.61800000       4.36015000E-07  
4.61900000       4.45546000E-07  
4.62000000       4.55026000E-07  
4.62100000       4.56971000E-07  
4.62200000       4.58020000E-07  
4.62300000       4.59760000E-07  
4.62400000       4.63091000E-07  
4.62500000       4.66476000E-07  
4.62600000       4.88505000E-07  
4.62700000       5.23064000E-07  
4.62800000       5.57566000E-07  
4.62900000       5.65747000E-07  
4.63000000       5.73918000E-07  
4.63100000       5.76688000E-07  
4.63200000       5.66754000E-07  
4.63300000       5.56886000E-07  
4.63400000       5.48034000E-07  
4.63500000       5.39703000E-07  
4.63600000       5.31313000E-07  
4.63700000       5.27767000E-07  
4.63800000       5.24158000E-07  
4.63900000       5.21940000E-07  
4.64000000       5.23024000E-07  
4.64100000       5.24050000E-07  
4.64200000       5.24650000E-07  
4.64300000       5.24982000E-07  
4.64400000       5.25374000E-07  
4.64500000       5.39918000E-07  
4.64600000       5.54528000E-07  
4.64700000       5.80494000E-07  
4.64800000       6.23690000E-07  
4.64900000       6.66839000E-07  
4.65000000       6.77947000E-07  
4.65100000       6.75248000E-07  
4.65200000       6.71449000E-07  
4.65300000       6.56976000E-07  
4.65400000       6.42709000E-07  
4.65500000       6.28798000E-07  
4.65600000       6.15752000E-07  
4.65700000       6.02776000E-07  
4.65800000       5.93331000E-07  
4.65900000       5.84857000E-07  
4.66000000       5.76774000E-07  
4.66100000       5.72894000E-07  
4.66200000       5.68946000E-07  
4.66300000       5.84454000E-07  
4.66400000       6.19265000E-07  
4.66500000       6.54278000E-07  
4.66600000       6.76764000E-07  
4.66700000       6.96065000E-07  
4.66800000       7.11012000E-07  
4.66900000       7.08115000E-07  
4.67000000       7.05300000E-07  
4.67100000       6.60443000E-07  
4.67200000       5.73664000E-07  
4.67300000       4.86938000E-07  
4.67400000       4.33016000E-07  
4.67500000       3.87229000E-07  
4.67600000       3.51710000E-07  
4.67700000       3.57308000E-07  
4.67800000       3.62948000E-07  
4.67900000       3.75004000E-07  
4.68000000       3.93570000E-07  
4.68100000       4.12094000E-07  
4.68200000       4.33735000E-07  
4.68300000       4.55681000E-07  
4.68400000       4.73222000E-07  
4.68500000       4.73191000E-07  
4.68600000       4.73104000E-07  
4.68700000       4.73744000E-07  
4.68800000       4.74924000E-07  
4.68900000       4.76145000E-07  
4.69000000       4.78258000E-07  
4.69100000       4.80541000E-07  
4.69200000       4.82315000E-07  
4.69300000       4.83032000E-07  
4.69400000       4.83805000E-07  
4.69500000       4.84676000E-07  
4.69600000       4.85648000E-07  
4.69700000       4.86776000E-07  
4.69800000       4.88318000E-07  
4.69900000       4.89858000E-07  
4.70000000       4.91790000E-07  
4.70100000       4.94453000E-07  
4.70200000       4.97112000E-07  
4.70300000       4.97137000E-07  
4.70400000       4.96019000E-07  
4.70500000       4.94844000E-07  
4.70600000       4.67704000E-07  
4.70700000       4.40703000E-07  
4.70800000       4.09551000E-07  
4.70900000       3.69100000E-07  
4.71000000       3.28648000E-07  
4.71100000       2.89164000E-07  
4.71200000       2.50040000E-07  
4.71300000       2.10916000E-07  
4.71400000       2.35455000E-07  
4.71500000       2.60012000E-07  
4.71600000       2.90225000E-07  
4.71700000       3.28819000E-07  
4.71800000       3.67413000E-07  
4.71900000       4.12310000E-07  
4.72000000       4.59845000E-07  
4.72100000       5.02310000E-07  
4.72200000       4.98986000E-07  
4.72300000       4.95662000E-07  
4.72400000       4.82711000E-07  
4.72500000       4.55151000E-07  
4.72600000       4.27492000E-07  
4.72700000       4.29950000E-07  
4.72800000       4.39945000E-07  
4.72900000       4.51850000E-07  
4.73000000       4.80974000E-07  
4.73100000       5.10048000E-07  
4.73200000       5.56608000E-07  
4.73300000       6.20672000E-07  
4.73400000       6.84906000E-07  
4.73500000       7.07853000E-07  
4.73600000       7.20527000E-07  
4.73700000       7.30282000E-07  
4.73800000       7.27949000E-07  
4.73900000       7.25617000E-07  
4.74000000       7.28941000E-07  
4.74100000       7.37936000E-07  
4.74200000       7.47079000E-07  
4.74300000       7.35496000E-07  
4.74400000       7.21539000E-07  
4.74500000       7.04112000E-07  
4.74600000       6.72833000E-07  
4.74700000       6.41537000E-07  
4.74800000       5.99092000E-07  
4.74900000       5.45555000E-07  
4.75000000       4.91946000E-07  
4.75100000       4.65852000E-07  
4.75200000       4.42707000E-07  
4.75300000       4.33482000E-07  
4.75400000       4.80027000E-07  
4.75500000       5.26550000E-07  
4.75600000       5.67005000E-07  
4.75700000       6.03419000E-07  
4.75800000       6.39835000E-07  
4.75900000       6.69583000E-07  
4.76000000       6.98602000E-07  
4.76100000       7.25323000E-07  
4.76200000       7.46217000E-07  
4.76300000       7.67104000E-07  
4.76400000       7.84265000E-07  
4.76500000       7.98712000E-07  
4.76600000       8.13251000E-07  
4.76700000       8.10099000E-07  
4.76800000       8.06948000E-07  
4.76900000       8.04413000E-07  
4.77000000       8.03317000E-07  
4.77100000       8.02380000E-07  
4.77200000       8.02122000E-07  
4.77300000       8.02221000E-07  
4.77400000       8.02320000E-07  
4.77500000       8.22820000E-07  
4.77600000       8.43224000E-07  
4.77700000       8.57184000E-07  
4.77800000       8.61343000E-07  
4.77900000       8.65496000E-07  
4.78000000       8.48807000E-07  
4.78100000       8.23192000E-07  
4.78200000       7.97575000E-07  
4.78300000       7.49257000E-07  
4.78400000       7.01176000E-07  
4.78500000       6.53527000E-07  
4.78600000       6.06759000E-07  
4.78700000       5.59968000E-07  
4.78800000       5.35809000E-07  
4.78900000       5.21405000E-07  
4.79000000       5.09244000E-07  
4.79100000       5.17250000E-07  
4.79200000       5.25194000E-07  
4.79300000       5.52761000E-07  
4.79400000       6.09651000E-07  
4.79500000       6.66610000E-07  
4.79600000       6.89849000E-07  
4.79700000       7.04756000E-07  
4.79800000       7.17319000E-07  
4.79900000       7.08821000E-07  
4.80000000       7.00237000E-07  
4.80100000       6.71056000E-07  
4.80200000       6.21205000E-07  
4.80300000       5.71286000E-07  
4.80400000       5.38747000E-07  
4.80500000       5.10542000E-07  
4.80600000       4.88221000E-07  
4.80700000       4.89747000E-07  
4.80800000       4.91274000E-07  
4.80900000       5.09762000E-07  
4.81000000       5.45310000E-07  
4.81100000       5.80850000E-07  
4.81200000       6.41600000E-07  
4.81300000       7.05328000E-07  
4.81400000       7.62249000E-07  
4.81500000       7.92549000E-07  
4.81600000       8.22676000E-07  
4.81700000       8.44515000E-07  
4.81800000       8.58085000E-07  
4.81900000       8.71555000E-07  
4.82000000       8.44955000E-07  
4.82100000       8.13911000E-07  
4.82200000       7.86265000E-07  
4.82300000       7.72627000E-07  
4.82400000       7.58906000E-07  
4.82500000       7.51972000E-07  
4.82600000       7.49421000E-07  
4.82700000       7.46950000E-07  
4.82800000       7.44959000E-07  
4.82900000       7.42962000E-07  
4.83000000       7.41811000E-07  
4.83100000       7.42563000E-07  
4.83200000       7.43229000E-07  
4.83300000       7.50004000E-07  
4.83400000       7.60706000E-07  
4.83500000       7.71496000E-07  
4.83600000       7.41875000E-07  
4.83700000       7.12260000E-07  
4.83800000       6.74045000E-07  
4.83900000       6.15286000E-07  
4.84000000       5.56770000E-07  
4.84100000       5.20565000E-07  
4.84200000       4.93931000E-07  
4.84300000       4.67357000E-07  
4.84400000       4.55393000E-07  
4.84500000       4.43483000E-07  
4.84600000       4.63736000E-07  
4.84700000       5.32297000E-07  
4.84800000       6.00911000E-07  
4.84900000       6.55082000E-07  
4.85000000       7.03354000E-07  
4.85100000       7.44918000E-07  
4.85200000       7.25269000E-07  
4.85300000       7.05633000E-07  
4.85400000       6.79732000E-07  
4.85500000       6.44237000E-07  
4.85600000       6.08748000E-07  
4.85700000       5.71262000E-07  
4.85800000       5.32717000E-07  
4.85900000       4.98739000E-07  
4.86000000       5.04877000E-07  
4.86100000       5.11070000E-07  
4.86200000       5.19924000E-07  
4.86300000       5.32854000E-07  
4.86400000       5.45782000E-07  
4.86500000       5.71876000E-07  
4.86600000       6.01199000E-07  
4.86700000       6.28148000E-07  
4.86800000       6.35216000E-07  
4.86900000       6.42359000E-07  
4.87000000       6.38468000E-07  
4.87100000       6.23606000E-07  
4.87200000       6.08740000E-07  
4.87300000       5.88821000E-07  
4.87400000       5.67709000E-07  
4.87500000       5.47354000E-07  
4.87600000       5.30126000E-07  
4.87700000       5.13069000E-07  
4.87800000       5.13377000E-07  
4.87900000       5.31072000E-07  
4.88000000       5.48755000E-07  
4.88100000       5.62537000E-07  
4.88200000       5.75812000E-07  
4.88300000       5.87281000E-07  
4.88400000       5.91553000E-07  
4.88500000       5.95825000E-07  
4.88600000       5.95721000E-07  
4.88700000       5.92585000E-07  
4.88800000       5.89570000E-07  
4.88900000       5.82735000E-07  
4.89000000       5.75476000E-07  
4.89100000       5.66638000E-07  
4.89200000       5.51537000E-07  
4.89300000       5.36381000E-07  
4.89400000       5.25000000E-07  
4.89500000       5.16134000E-07  
4.89600000       5.07268000E-07  
4.89700000       5.33117000E-07  
4.89800000       5.62824000E-07  
4.89900000       5.92283000E-07  
4.90000000       6.21126000E-07  
4.90100000       6.49962000E-07  
4.90200000       6.77551000E-07  
4.90300000       7.04306000E-07  
4.90400000       7.31055000E-07  
4.90500000       7.34294000E-07  
4.90600000       7.37378000E-07  
4.90700000       7.36562000E-07  
4.90800000       7.26579000E-07  
4.90900000       7.16598000E-07  
4.91000000       6.94866000E-07  
4.91100000       6.68101000E-07  
4.91200000       6.41331000E-07  
4.91300000       6.16524000E-07  
4.91400000       5.91723000E-07  
4.91500000       5.72342000E-07  
4.91600000       5.61088000E-07  
4.91700000       5.49835000E-07  
4.91800000       5.39449000E-07  
4.91900000       5.29383000E-07  
4.92000000       5.19726000E-07  
4.92100000       5.12110000E-07  
4.92200000       5.04495000E-07  
4.92300000       5.02838000E-07  
4.92400000       5.10130000E-07  
4.92500000       5.17423000E-07  
4.92600000       5.32032000E-07  
4.92700000       5.49852000E-07  
4.92800000       5.70130000E-07  
4.92900000       6.12511000E-07  
4.93000000       6.54881000E-07  
4.93100000       7.00337000E-07  
4.93200000       7.50576000E-07  
4.93300000       8.00798000E-07  
4.93400000       7.98924000E-07  
4.93500000       7.84009000E-07  
4.93600000       7.69256000E-07  
4.93700000       7.56835000E-07  
4.93800000       7.44418000E-07  
4.93900000       7.34740000E-07  
4.94000000       7.27712000E-07  
4.94100000       7.20778000E-07  
4.94200000       7.10013000E-07  
4.94300000       6.98290000E-07  
4.94400000       6.85988000E-07  
4.94500000       6.71758000E-07  
4.94600000       6.57537000E-07  
4.94700000       6.51762000E-07  
4.94800000       6.54578000E-07  
4.94900000       6.57393000E-07  
4.95000000       6.64514000E-07  
4.95100000       6.72203000E-07  
4.95200000       6.78595000E-07  
4.95300000       6.79885000E-07  
4.95400000       6.81116000E-07  
4.95500000       6.75908000E-07  
4.95600000       6.66328000E-07  
4.95700000       6.56830000E-07  
4.95800000       6.16326000E-07  
4.95900000       5.72336000E-07  
4.96000000       5.31684000E-07  
4.96100000       5.03983000E-07  
4.96200000       4.76351000E-07  
4.96300000       4.58574000E-07  
4.96400000       4.47311000E-07  
4.96500000       4.36110000E-07  
4.96600000       4.13082000E-07  
4.96700000       3.88801000E-07  
4.96800000       3.64020000E-07  
4.96900000       3.38063000E-07  
4.97000000       3.12118000E-07  
4.97100000       3.16841000E-07  
4.97200000       3.42048000E-07  
4.97300000       3.67282000E-07  
4.97400000       4.08224000E-07  
4.97500000       4.49105000E-07  
4.97600000       4.77272000E-07  
4.97700000       4.75540000E-07  
4.97800000       4.73866000E-07  
4.97900000       4.68988000E-07  
4.98000000       4.62687000E-07  
4.98100000       4.56387000E-07  
4.98200000       4.36065000E-07  
4.98300000       4.15698000E-07  
4.98400000       4.00757000E-07  
4.98500000       3.93850000E-07  
4.98600000       3.86992000E-07  
4.98700000       3.90375000E-07  
4.98800000       3.98210000E-07  
4.98900000       4.03251000E-07  
4.99000000       3.83682000E-07  
4.99100000       3.64064000E-07  
4.99200000       3.40203000E-07  
4.99300000       3.09924000E-07  
4.99400000       2.79590000E-07  
4.99500000       2.82520000E-07  
4.99600000       2.93734000E-07  
4.99700000       3.06171000E-07  
4.99800000       3.29214000E-07  
4.99900000       3.52248000E-07  
5.00000000       3.70430000E-07  
5.00100000       3.81230000E-07  
5.00200000       3.92071000E-07  
5.00300000       4.04831000E-07  
5.00400000       4.18083000E-07  
5.00500000       4.32655000E-07  
5.00600000       4.58675000E-07  
5.00700000       4.84684000E-07  
5.00800000       5.05859000E-07  
5.00900000       5.22260000E-07  
5.01000000       5.38601000E-07  
5.01100000       5.37980000E-07  
5.01200000       5.33190000E-07  
5.01300000       5.27480000E-07  
5.01400000       5.18335000E-07  
5.01500000       5.09195000E-07  
5.01600000       4.98341000E-07  
5.01700000       4.85441000E-07  
5.01800000       4.72553000E-07  
5.01900000       4.52367000E-07  
5.02000000       4.31316000E-07  
5.02100000       4.09941000E-07  
5.02200000       3.87243000E-07  
5.02300000       3.64600000E-07  
5.02400000       3.37956000E-07  
5.02500000       3.08703000E-07  
5.02600000       2.79463000E-07  
5.02700000       2.56235000E-07  
5.02800000       2.33712000E-07  
5.02900000       2.32916000E-07  
5.03000000       2.83006000E-07  
5.03100000       3.33049000E-07  
5.03200000       3.91860000E-07  
5.03300000       4.56551000E-07  
5.03400000       5.21218000E-07  
5.03500000       5.41450000E-07  
5.03600000       5.56739000E-07  
5.03700000       5.69329000E-07  
5.03800000       5.75681000E-07  
5.03900000       5.81961000E-07  
5.04000000       5.77995000E-07  
5.04100000       5.67200000E-07  
5.04200000       5.56410000E-07  
5.04300000       5.24251000E-07  
5.04400000       4.92121000E-07  
5.04500000       4.56175000E-07  
5.04600000       4.11122000E-07  
5.04700000       3.66090000E-07  
5.04800000       3.37259000E-07  
5.04900000       3.15373000E-07  
5.05000000       2.93486000E-07  
5.05100000       2.79833000E-07  
5.05200000       2.66186000E-07  
5.05300000       2.60920000E-07  
5.05400000       2.68133000E-07  
5.05500000       2.75344000E-07  
5.05600000       2.87279000E-07  
5.05700000       3.01225000E-07  
5.05800000       3.13609000E-07  
5.05900000       3.12015000E-07  
5.06000000       3.10422000E-07  
5.06100000       3.09767000E-07  
5.06200000       3.10361000E-07  
5.06300000       3.10957000E-07  
5.06400000       3.43792000E-07  
5.06500000       3.84663000E-07  
5.06600000       4.25132000E-07  
5.06700000       4.62201000E-07  
5.06800000       4.99203000E-07  
5.06900000       5.12746000E-07  
5.07000000       4.91063000E-07  
5.07100000       4.69400000E-07  
5.07200000       4.53771000E-07  
5.07300000       4.39656000E-07  
5.07400000       4.26447000E-07  
5.07500000       4.21319000E-07  
5.07600000       4.16192000E-07  
5.07700000       4.11415000E-07  
5.07800000       4.06986000E-07  
5.07900000       4.02558000E-07  
5.08000000       3.98396000E-07  
5.08100000       3.94302000E-07  
5.08200000       3.87016000E-07  
5.08300000       3.66937000E-07  
5.08400000       3.46876000E-07  
5.08500000       3.23517000E-07  
5.08600000       2.96866000E-07  
5.08700000       2.70226000E-07  
5.08800000       2.58756000E-07  
5.08900000       2.49009000E-07  
5.09000000       2.40233000E-07  
5.09100000       2.35304000E-07  
5.09200000       2.30377000E-07  
5.09300000       2.24480000E-07  
5.09400000       2.17936000E-07  
5.09500000       2.11394000E-07  
5.09600000       2.04752000E-07  
5.09700000       1.98106000E-07  
5.09800000       2.01058000E-07  
5.09900000       2.26397000E-07  
5.10000000       2.51672000E-07  
5.10100000       2.83294000E-07  
5.10200000       3.19127000E-07  
5.10300000       3.54883000E-07  
5.10400000       3.81982000E-07  
5.10500000       4.08101000E-07  
5.10600000       4.33608000E-07  
5.10700000       4.57702000E-07  
5.10800000       4.81785000E-07  
5.10900000       4.89456000E-07  
5.11000000       4.86191000E-07  
5.11100000       4.82869000E-07  
5.11200000       4.59654000E-07  
5.11300000       4.36449000E-07  
5.11400000       4.01914000E-07  
5.11500000       3.40870000E-07  
5.11600000       2.79793000E-07  
5.11700000       2.40727000E-07  
5.11800000       2.11045000E-07  
5.11900000       1.81377000E-07  
5.12000000       1.69991000E-07  
5.12100000       1.58590000E-07  
5.12200000       1.54272000E-07  
5.12300000       1.60550000E-07  
5.12400000       1.66825000E-07  
5.12500000       1.93892000E-07  
5.12600000       2.29827000E-07  
5.12700000       2.63175000E-07  
5.12800000       2.73200000E-07  
5.12900000       2.83226000E-07  
5.13000000       2.81767000E-07  
5.13100000       2.63194000E-07  
5.13200000       2.44631000E-07  
5.13300000       2.15642000E-07  
5.13400000       1.84091000E-07  
5.13500000       1.53053000E-07  
5.13600000       1.26663000E-07  
5.13700000       1.00273000E-07  
5.13800000       9.02438000E-08  
5.13900000       9.65346000E-08  
5.14000000       1.02810000E-07  
5.14100000       1.22808000E-07  
5.14200000       1.46243000E-07  
5.14300000       1.70879000E-07  
5.14400000       2.06719000E-07  
5.14500000       2.42541000E-07  
5.14600000       2.86666000E-07  
5.14700000       3.39125000E-07  
5.14800000       3.91509000E-07  
5.14900000       3.98914000E-07  
5.15000000       3.95106000E-07  
5.15100000       3.89472000E-07  
5.15200000       3.76781000E-07  
5.15300000       3.64096000E-07  
5.15400000       3.45097000E-07  
5.15500000       3.19856000E-07  
5.15600000       2.94641000E-07  
5.15700000       2.73587000E-07  
5.15800000       2.53045000E-07  
5.15900000       2.31391000E-07  
5.16000000       2.05414000E-07  
5.16100000       1.79449000E-07  
5.16200000       1.58852000E-07  
5.16300000       1.41885000E-07  
5.16400000       1.24909000E-07  
5.16500000       1.19761000E-07  
5.16600000       1.15913000E-07  
5.16700000       1.12521000E-07  
5.16800000       1.10155000E-07  
5.16900000       1.07779000E-07  
5.17000000       1.09716000E-07  
5.17100000       1.14500000E-07  
5.17200000       1.19295000E-07  
5.17300000       9.81196000E-08  
5.17400000       7.69680000E-08  
5.17500000       5.53846000E-08  
5.17600000       3.28508000E-08  
5.17700000       1.03344000E-08  
5.17800000       0.00000000E+00  
5.17900000       0.00000000E+00  
5.18000000       0.00000000E+00  
5.18100000       0.00000000E+00  
5.18200000       0.00000000E+00  
5.18300000       0.00000000E+00  
5.18400000       0.00000000E+00  
5.18500000       0.00000000E+00  
5.18600000       0.00000000E+00  
5.18700000       0.00000000E+00  
5.18800000       0.00000000E+00  
5.18900000       0.00000000E+00  
5.19000000       7.63085000E-09  
5.19100000       1.57024000E-08  
5.19200000       3.10902000E-08  
5.19300000       4.64726000E-08  
5.19400000       5.68958000E-08  
5.19500000       6.52057000E-08  
5.19600000       7.03845000E-08  
5.19700000       4.77445000E-08  
5.19800000       2.51118000E-08  
5.19900000       1.06876000E-08  
5.20000000       8.57380000E-09  
5.20100000       0.00000000E+00  
5.20200000       9.28829000E-09  
5.20300000       1.33450000E-08  
5.20400000       1.80949000E-08  
5.20500000       2.90743000E-08  
5.20600000       4.00508000E-08  
5.20700000       5.85013000E-08  
5.20800000       8.44401000E-08  
5.20900000       1.10340000E-07  
5.21000000       1.32758000E-07  
5.21100000       1.54294000E-07  
5.21200000       1.72605000E-07  
5.21300000       1.62026000E-07  
5.21400000       1.51447000E-07  
5.21500000       1.42948000E-07  
5.21600000       1.36617000E-07  
5.21700000       1.30289000E-07  
5.21800000       1.26107000E-07  
5.21900000       1.22464000E-07  
5.22000000       1.16338000E-07  
5.22100000       1.00334000E-07  
5.22200000       8.43315000E-08  
5.22300000       6.82960000E-08  
5.22400000       5.22271000E-08  
5.22500000       3.61660000E-08  
5.22600000       3.31026000E-08  
5.22700000       3.14852000E-08  
5.22800000       3.14496000E-08  
5.22900000       3.77230000E-08  
5.23000000       4.39932000E-08  
5.23100000       5.13506000E-08  
5.23200000       5.94472000E-08  
5.23300000       6.75485000E-08  
5.23400000       7.82335000E-08  
5.23500000       8.91961000E-08  
5.23600000       9.14723000E-08  
5.23700000       7.34923000E-08  
5.23800000       5.55212000E-08  
5.23900000       3.96199000E-08  
5.24000000       2.51006000E-08  
5.24100000       1.05814000E-08  
5.24200000       7.24596000E-09  
5.24300000       0.00000000E+00  
5.24400000       0.00000000E+00  
5.24500000       0.00000000E+00  
5.24600000       0.00000000E+00  
5.24700000       0.00000000E+00  
5.24800000       0.00000000E+00  
5.24900000       0.00000000E+00  
5.25000000       0.00000000E+00  
5.25100000       0.00000000E+00  
5.25200000       0.00000000E+00  
5.25300000       0.00000000E+00  
5.25400000       0.00000000E+00  
5.25500000       7.66597000E-09  
5.25600000       1.77232000E-08  
5.25700000       2.77764000E-08  
5.25800000       8.72941000E-08  
5.25900000       1.46764000E-07  
5.26000000       1.91327000E-07  
5.26100000       2.13408000E-07  
5.26200000       2.35541000E-07  
5.26300000       2.44275000E-07  
5.26400000       2.47283000E-07  
5.26500000       2.48474000E-07  
5.26600000       2.33051000E-07  
5.26700000       2.17632000E-07  
5.26800000       2.03977000E-07  
5.26900000       1.93028000E-07  
5.27000000       1.82060000E-07  
5.27100000       1.74004000E-07  
5.27200000       1.66680000E-07  
5.27300000       1.58804000E-07  
5.27400000       1.45865000E-07  
5.27500000       1.32975000E-07  
5.27600000       1.19563000E-07  
5.27700000       1.05663000E-07  
5.27800000       9.17728000E-08  
5.27900000       9.36913000E-08  
5.28000000       9.95691000E-08  
5.28100000       1.12249000E-07  
5.28200000       1.52038000E-07  
5.28300000       1.91787000E-07  
5.28400000       2.35659000E-07  
5.28500000       2.83652000E-07  
5.28600000       3.31597000E-07  
5.28700000       3.64343000E-07  
5.28800000       3.93335000E-07  
5.28900000       4.17217000E-07  
5.29000000       4.20860000E-07  
5.29100000       4.24445000E-07  
5.29200000       4.10091000E-07  
5.29300000       3.77683000E-07  
5.29400000       3.45367000E-07  
5.29500000       3.21684000E-07  
5.29600000       2.98948000E-07  
5.29700000       2.77565000E-07  
5.29800000       2.61496000E-07  
5.29900000       2.45382000E-07  
5.30000000       2.27271000E-07  
5.30100000       2.07882000E-07  
5.30200000       1.88538000E-07  
5.30300000       1.64834000E-07  
5.30400000       1.40693000E-07  
5.30500000       1.20492000E-07  
5.30600000       1.09458000E-07  
5.30700000       9.84304000E-08  
5.30800000       9.49866000E-08  
5.30900000       9.65409000E-08  
5.31000000       9.80593000E-08  
5.31100000       1.01699000E-07  
5.31200000       1.05266000E-07  
5.31300000       1.11378000E-07  
5.31400000       1.23405000E-07  
5.31500000       1.35317000E-07  
5.31600000       1.48521000E-07  
5.31700000       1.62196000E-07  
5.31800000       1.75695000E-07  
5.31900000       1.87549000E-07  
5.32000000       1.99257000E-07  
5.32100000       2.10969000E-07  
5.32200000       2.22969000E-07  
5.32300000       2.34743000E-07  
5.32400000       2.37045000E-07  
5.32500000       2.35264000E-07  
5.32600000       2.33485000E-07  
5.32700000       2.32774000E-07  
5.32800000       2.32052000E-07  
5.32900000       2.36905000E-07  
5.33000000       2.49967000E-07  
5.33100000       2.62779000E-07  
5.33200000       2.77559000E-07  
5.33300000       2.92985000E-07  
5.33400000       3.07634000E-07  
5.33500000       3.18985000E-07  
5.33600000       3.30062000E-07  
5.33700000       3.41805000E-07  
5.33800000       3.54525000E-07  
5.33900000       3.67037000E-07  
5.34000000       3.61138000E-07  
5.34100000       3.50829000E-07  
5.34200000       3.40478000E-07  
5.34300000       3.29175000E-07  
5.34400000       3.17995000E-07  
5.34500000       3.07377000E-07  
5.34600000       2.97349000E-07  
5.34700000       2.87465000E-07  
5.34800000       2.77818000E-07  
5.34900000       2.68348000E-07  
5.35000000       2.57481000E-07  
5.35100000       2.40724000E-07  
5.35200000       2.24223000E-07  
5.35300000       2.08196000E-07  
5.35400000       1.92630000E-07  
5.35500000       1.77331000E-07  
5.35600000       1.77228000E-07  
5.35700000       1.80768000E-07  
5.35800000       1.85973000E-07  
5.35900000       1.97959000E-07  
5.36000000       2.09631000E-07  
5.36100000       2.20394000E-07  
5.36200000       2.30354000E-07  
5.36300000       2.39997000E-07  
5.36400000       2.47920000E-07  
5.36500000       2.55408000E-07  
5.36600000       2.62673000E-07  
5.36700000       2.70169000E-07  
5.36800000       2.77380000E-07  
5.36900000       2.84070000E-07  
5.37000000       2.90391000E-07  
5.37100000       2.96441000E-07  
5.37200000       2.93787000E-07  
5.37300000       2.90163000E-07  
5.37400000       2.82915000E-07  
5.37500000       2.67505000E-07  
5.37600000       2.52476000E-07  
5.37700000       2.36741000E-07  
5.37800000       2.20855000E-07  
5.37900000       2.05317000E-07  
5.38000000       1.88561000E-07  
5.38100000       1.72147000E-07  
5.38200000       1.58542000E-07  
5.38300000       1.50619000E-07  
5.38400000       1.42936000E-07  
5.38500000       1.50242000E-07  
5.38600000       1.63590000E-07  
5.38700000       1.76522000E-07  
5.38800000       1.91103000E-07  
5.38900000       2.05336000E-07  
5.39000000       2.10779000E-07  
5.39100000       2.03604000E-07  
5.39200000       1.96602000E-07  
5.39300000       1.89952000E-07  
5.39400000       1.83598000E-07  
5.39500000       1.77343000E-07  
5.39600000       1.71251000E-07  
5.39700000       1.65221000E-07  
5.39800000       1.59518000E-07  
5.39900000       1.54168000E-07  
5.40000000       1.48951000E-07  
5.40100000       1.41833000E-07  
5.40200000       1.34093000E-07  
5.40300000       1.26507000E-07  
5.40400000       1.19620000E-07  
5.40500000       1.12896000E-07  
5.40600000       1.07659000E-07  
5.40700000       1.04608000E-07  
5.40800000       1.01610000E-07  
5.40900000       9.94798000E-08  
5.41000000       9.75375000E-08  
5.41100000       9.60835000E-08  
5.41200000       9.84743000E-08  
5.41300000       1.00811000E-07  
5.41400000       1.04502000E-07  
5.41500000       1.09524000E-07  
5.41600000       1.14378000E-07  
5.41700000       1.18216000E-07  
5.41800000       1.21731000E-07  
5.41900000       1.24720000E-07  
5.42000000       1.26119000E-07  
5.42100000       1.27379000E-07  
5.42200000       1.28299000E-07  
5.42300000       1.28947000E-07  
5.42400000       1.29526000E-07  
5.42500000       1.28852000E-07  
5.42600000       1.27987000E-07  
5.42700000       1.26248000E-07  
5.42800000       1.21087000E-07  
5.42900000       1.16026000E-07  
5.43000000       1.05737000E-07  
5.43100000       9.03519000E-08  
5.43200000       7.54523000E-08  
5.43300000       6.50476000E-08  
5.43400000       5.53840000E-08  
5.43500000       4.63860000E-08  
5.43600000       3.91564000E-08  
5.43700000       3.21720000E-08  
5.43800000       2.68216000E-08  
5.43900000       2.25622000E-08  
5.44000000       1.84480000E-08  
5.44100000       1.84572000E-08  
5.44200000       1.88796000E-08  
5.44300000       1.93849000E-08  
5.44400000       2.00863000E-08  
5.44500000       2.07458000E-08  
5.44600000       2.21460000E-08  
5.44700000       2.39850000E-08  
5.44800000       2.57549000E-08  
5.44900000       2.83365000E-08  
5.45000000       3.08000000E-08  
5.45100000       3.31293000E-08  
5.45200000       3.52503000E-08  
5.45300000       3.72628000E-08  
5.45400000       3.89616000E-08  
5.45500000       4.04973000E-08  
5.45600000       4.19480000E-08  
5.45700000       4.41930000E-08  
5.45800000       4.63094000E-08  
5.45900000       4.87247000E-08  
5.46000000       5.15710000E-08  
5.46100000       5.42988000E-08  
5.46200000       5.66711000E-08  
5.46300000       5.88102000E-08  
5.46400000       6.07910000E-08  
5.46500000       6.06093000E-08  
5.46600000       6.03780000E-08  
5.46700000       5.97623000E-08  
5.46800000       5.85313000E-08  
5.46900000       5.73023000E-08  
5.47000000       5.21117000E-08  
5.47100000       4.54947000E-08  
5.47200000       3.93273000E-08  
5.47300000       3.47356000E-08  
5.47400000       3.03076000E-08  
5.47500000       2.71297000E-08  
5.47600000       2.56755000E-08  
5.47700000       2.42904000E-08  
5.47800000       2.30904000E-08  
5.47900000       2.19565000E-08  
5.48000000       2.08506000E-08  
5.48100000       1.95244000E-08  
5.48200000       1.82378000E-08  
5.48300000       1.70572000E-08  
5.48400000       1.59108000E-08  
5.48500000       1.48227000E-08  
5.48600000       1.04710000E-08  
5.48700000       5.47998000E-09  
5.48800000       1.51475000E-09  
5.48900000       9.08907000E-10  
5.49000000       0.00000000E+00  
5.49100000       0.00000000E+00  
5.49200000       0.00000000E+00  
5.49300000       0.00000000E+00  
5.49400000       0.00000000E+00  
5.49500000       0.00000000E+00  
5.49600000       0.00000000E+00  
5.49700000       0.00000000E+00  
5.49800000       0.00000000E+00  
5.49900000       0.00000000E+00  
5.50000000       0.00000000E+00  
